#Wave		#Intensity
3550.405273	40481.589844
3549.173828	40726.105469
3547.941406	40768.343750
3546.708984	40578.371094
3545.476563	40763.160156
3544.243164	40506.074219
3543.010742	40686.718750
3541.777344	40726.863281
3540.542969	41057.933594
3539.309570	40931.171875
3538.075195	40279.761719
3536.840820	41047.855469
3535.605469	40772.765625
3534.371094	40560.796875
3533.135742	40375.328125
3531.900391	40756.730469
3530.664063	41133.906250
3529.428711	41104.781250
3528.192383	40752.855469
3526.955078	40748.171875
3525.718750	40810.457031
3524.481445	40708.367188
3523.244141	40561.687500
3522.006836	41232.375000
3520.768555	41063.332031
3519.530273	40999.773438
3518.291992	41455.082031
3517.053711	41190.851563
3515.814453	41117.164063
3514.575195	41389.851563
3513.335938	41510.539063
3512.095703	41313.316406
3510.855469	41142.488281
3509.615234	41161.953125
3508.375000	41177.363281
3507.133789	41447.632813
3505.892578	41363.867188
3504.651367	41075.914063
3503.410156	41594.664063
3502.167969	41682.695313
3500.925781	41378.679688
3499.683594	41232.371094
3498.440430	41273.953125
3497.197266	41662.839844
3495.954102	41766.890625
3494.710938	41479.312500
3493.466797	40915.382813
3492.222656	41572.332031
3490.978516	41605.691406
3489.734375	41818.519531
3488.489258	41632.031250
3487.244141	41439.566406
3485.999023	42174.269531
3484.752930	41639.218750
3483.506836	41916.253906
3482.260742	41667.484375
3481.014648	42276.632813
3479.767578	41899.035156
3478.520508	42085.179688
3477.273438	42257.148438
3476.025391	41634.335938
3474.777344	41818.386719
3473.529297	41793.207031
3472.281250	42146.027344
3471.032227	42496.675781
3469.784180	42264.347656
3468.534180	42295.335938
3467.285156	42304.207031
3466.035156	42331.144531
3464.785156	42103.050781
3463.535156	42453.222656
3462.284180	41934.167969
3461.033203	42559.125000
3459.782227	42581.941406
3458.531250	42161.464844
3457.279297	42589.429688
3456.027344	42542.039063
3454.775391	42518.714844
3453.522461	42493.394531
3452.270508	42738.566406
3451.016602	42763.277344
3449.763672	42317.335938
3448.509766	42842.687500
3447.255859	42675.167969
3446.001953	42777.906250
3444.748047	42476.402344
3443.493164	42529.117188
3442.238281	42727.808594
3440.983398	42592.468750
3439.727539	42739.074219
3438.471680	42483.855469
3437.215820	42882.195313
3435.958984	42958.699219
3434.703125	43035.164063
3433.446289	42618.324219
3432.188477	42778.675781
3430.931641	43074.691406
3429.673828	42865.656250
3428.416016	42554.953125
3427.157227	42856.789063
3425.898438	42777.562500
3424.639648	42690.390625
3423.380859	42842.472656
3422.121094	42972.558594
3420.862305	42797.707031
3419.601563	42684.691406
3418.341797	42924.257813
3417.081055	42759.476563
3415.820313	42994.929688
3414.559570	42659.019531
3413.297852	42892.390625
3412.036133	42779.472656
3410.774414	42716.324219
3409.512695	42985.312500
3408.250000	42814.773438
3406.987305	42594.613281
3405.724609	42929.015625
3404.460938	43054.640625
3403.197266	42864.351563
3401.933594	42618.535156
3400.669922	42904.964844
3399.405273	42504.394531
3398.140625	42985.214844
3396.875977	43023.324219
3395.610352	42817.394531
3394.344727	43018.152344
3393.079102	42964.996094
3391.813477	43024.863281
3390.546875	43051.003906
3389.280273	42496.503906
3388.013672	42960.585938
3386.746094	42802.496094
3385.478516	42872.210938
3384.210938	42730.039063
3382.943359	43078.832031
3381.674805	43130.613281
3380.406250	43192.257813
3379.136719	43388.382813
3377.868164	42888.269531
3376.598633	43329.546875
3375.329102	42928.500000
3374.058594	43094.843750
3372.789063	42605.101563
3371.517578	42974.910156
3370.247070	42755.984375
3368.975586	42866.910156
3367.705078	42934.351563
3366.432617	42934.652344
3365.161133	42962.570313
3363.888672	43047.687500
3362.616211	42901.988281
3361.343750	43008.761719
3360.070313	42831.582031
3358.796875	42697.839844
3357.523438	43015.433594
3356.249023	42810.773438
3354.974609	43206.980469
3353.700195	42931.464844
3352.425781	42862.800781
3351.150391	43418.160156
3349.875000	43197.871094
3348.599609	43154.753906
3347.323242	43150.996094
3346.046875	43245.570313
3344.770508	43011.734375
3343.494141	43387.398438
3342.216797	43214.550781
3340.939453	43367.953125
3339.661133	43725.589844
3338.383789	43205.132813
3337.105469	43470.343750
3335.827148	43385.992188
3334.547852	43044.554688
3333.268555	43390.062500
3331.989258	43778.574219
3330.709961	43339.191406
3329.429688	43284.351563
3328.149414	43709.859375
3326.869141	43345.257813
3325.587891	43570.667969
3324.306641	43521.683594
3323.025391	43580.449219
3321.744141	43511.890625
3320.461914	43398.328125
3319.179688	43175.195313
3317.896484	43241.792969
3316.614258	43756.406250
3315.331055	43556.804688
3314.047852	43998.746094
3312.763672	43715.093750
3311.479492	44182.203125
3310.195313	44137.054688
3308.911133	44310.761719
3307.625977	44167.925781
3306.340820	44386.457031
3305.054688	44290.519531
3303.769531	44731.457031
3302.483398	44500.808594
3301.197266	43891.710938
3299.910156	44461.179688
3298.623047	44400.417969
3297.335938	44439.121094
3296.048828	44152.238281
3294.760742	44649.000000
3293.472656	44488.847656
3292.184570	44354.089844
3290.895508	44273.921875
3289.606445	44600.773438
3288.317383	44686.062500
3287.028320	44605.859375
3285.738281	44405.039063
3284.448242	44521.425781
3283.157227	44596.910156
3281.867188	44615.960938
3280.576172	44741.925781
3279.284180	45106.914063
3277.993164	45271.566406
3276.701172	44962.078125
3275.409180	44841.144531
3274.116211	45223.234375
3272.823242	45016.855469
3271.530273	45208.492188
3270.237305	44852.769531
3268.943359	45127.777344
3267.649414	44966.203125
3266.355469	44975.359375
3265.060547	45124.109375
3263.765625	45451.121094
3262.470703	45006.652344
3261.174805	45395.535156
3259.879883	45358.066406
3258.583008	45051.410156
3257.287109	45321.890625
3255.990234	45549.656250
3254.693359	45291.535156
3253.396484	45285.070313
3252.098633	45532.015625
3250.800781	45782.714844
3249.502930	45745.187500
3248.205078	45696.070313
3246.906250	45815.121094
3245.607422	45762.136719
3244.307617	45657.011719
3243.007813	45947.867188
3241.708008	45819.566406
3240.408203	46025.296875
3239.107422	45773.503906
3237.806641	46125.792969
3236.505859	45553.839844
3235.204102	45852.000000
3233.902344	45648.664063
3232.600586	46393.925781
3231.298828	45978.531250
3229.996094	45667.378906
3228.693359	46019.093750
3227.389648	46239.667969
3226.086914	46442.800781
3224.783203	45925.812500
3223.478516	45743.964844
3222.173828	46253.027344
3220.870117	46250.097656
3219.564453	46206.769531
3218.259766	46013.464844
3216.954102	46168.226563
3215.648438	46046.128906
3214.341797	45927.925781
3213.035156	46280.468750
3211.728516	46265.980469
3210.421875	46124.746094
3209.114258	45937.496094
3207.806641	46147.656250
3206.499023	46098.644531
3205.190430	46347.031250
3203.881836	46330.593750
3202.573242	46053.355469
3201.263672	46182.695313
3199.954102	46315.804688
3198.644531	46239.960938
3197.333984	46403.640625
3196.024414	46448.480469
3194.713867	46432.011719
3193.402344	46555.312500
3192.090820	46667.062500
3190.779297	46432.378906
3189.467773	46364.250000
3188.155273	45988.179688
3186.842773	46281.617188
3185.530273	45989.859375
3184.216797	46082.441406
3182.903320	46507.500000
3181.589844	46212.054688
3180.276367	46170.792969
3178.961914	46610.800781
3177.646484	46569.457031
3176.332031	46344.875000
3175.016602	46503.984375
3173.701172	46537.089844
3172.385742	46167.687500
3171.069336	46227.542969
3169.752930	46458.964844
3168.436523	46541.585938
3167.119141	46683.246094
3165.801758	46390.425781
3164.484375	46486.328125
3163.166016	46241.289063
3161.847656	46710.351563
3160.529297	46410.160156
3159.209961	46332.765625
3157.890625	46106.996094
3156.571289	46518.566406
3155.251953	46252.910156
3153.931641	46706.074219
3152.611328	46737.027344
3151.290039	46116.109375
3149.968750	46348.570313
3148.647461	46337.781250
3147.326172	46676.425781
3146.003906	46443.406250
3144.681641	46738.199219
3143.359375	46649.496094
3142.036133	46538.062500
3140.712891	46703.625000
3139.389648	46671.871094
3138.065430	46418.292969
3136.742188	46900.308594
3135.416992	46263.968750
3134.092773	46770.417969
3132.767578	46668.574219
3131.442383	46669.035156
3130.116211	47122.007813
3128.790039	46365.183594
3127.463867	46797.187500
3126.137695	46790.031250
3124.810547	46236.203125
3123.483398	46739.781250
3122.156250	47069.175781
3120.828125	46742.484375
3119.500000	47139.746094
3118.170898	46614.800781
3116.842773	47361.347656
3115.513672	46987.664063
3114.183594	47006.863281
3112.854492	47375.257813
3111.524414	47130.144531
3110.194336	47020.984375
3108.863281	47202.359375
3107.532227	47462.851563
3106.201172	47340.476563
3104.869141	47499.015625
3103.537109	47143.000000
3102.205078	47250.628906
3100.873047	47346.898438
3099.540039	47177.589844
3098.207031	47029.066406
3096.873047	47283.421875
3095.539063	47771.000000
3094.205078	47449.335938
3092.871094	47620.632813
3091.536133	47485.316406
3090.201172	47596.351563
3088.866211	47694.171875
3087.530273	47679.187500
3086.194336	47465.058594
3084.857422	47998.593750
3083.521484	47675.562500
3082.184570	47660.574219
3080.846680	47760.085938
3079.509766	47870.804688
3078.171875	48137.183594
3076.833008	48223.371094
3075.495117	48030.101563
3074.156250	48339.355469
3072.817383	48352.316406
3071.477539	48149.769531
3070.137695	48145.898438
3068.797852	47980.941406
3067.457031	48389.066406
3066.116211	48299.007813
3064.775391	48787.335938
3063.434570	48538.156250
3062.092773	48302.187500
3060.750977	48560.101563
3059.408203	48279.347656
3058.065430	48320.273438
3056.722656	49007.859375
3055.378906	48852.382813
3054.036133	48810.929688
3052.691406	48377.269531
3051.347656	48653.375000
3050.002930	48759.460938
3048.658203	48764.707031
3047.313477	48648.660156
3045.967773	48551.316406
3044.622070	48778.531250
3043.275391	49063.441406
3041.929688	48511.195313
3040.582031	48827.703125
3039.235352	49075.113281
3037.887695	49111.902344
3036.540039	48776.187500
3035.192383	49103.480469
3033.843750	48955.929688
3032.495117	48758.195313
3031.146484	49109.433594
3029.796875	48549.007813
3028.447266	49234.875000
3027.097656	48920.101563
3025.747070	48886.164063
3024.396484	49502.679688
3023.044922	49277.238281
3021.694336	48931.156250
3020.342773	48746.800781
3018.990234	49158.515625
3017.638672	49068.847656
3016.286133	48860.453125
3014.932617	48921.171875
3013.580078	49237.828125
3012.226563	49090.722656
3010.872070	48865.812500
3009.518555	49185.949219
3008.164063	48924.050781
3006.808594	48843.832031
3005.454102	49189.660156
3004.098633	48744.605469
3002.743164	49247.644531
3001.386719	48800.925781
3000.030273	48957.667969
2998.673828	48846.074219
2997.316406	48778.917969
2995.958984	48661.863281
2994.601563	49389.714844
2993.243164	48784.621094
2991.884766	48772.957031
2990.526367	49025.468750
2989.166992	48827.203125
2987.807617	48870.917969
2986.448242	48790.921875
2985.087891	49092.996094
2983.727539	49075.710938
2982.367188	48789.097656
2981.005859	49227.417969
2979.644531	49510.640625
2978.283203	49144.847656
2976.921875	48865.843750
2975.559570	48878.082031
2974.196289	49190.570313
2972.833984	49024.078125
2971.470703	49095.175781
2970.106445	49160.710938
2968.743164	48974.085938
2967.378906	48936.578125
2966.013672	49290.875000
2964.649414	49244.101563
2963.284180	49362.812500
2961.917969	49396.910156
2960.552734	49397.906250
2959.186523	49347.457031
2957.819336	49326.414063
2956.453125	49487.171875
2955.085938	49040.171875
2953.717773	49228.441406
2952.350586	50011.156250
2950.982422	49742.289063
2949.613281	50098.976563
2948.245117	50295.960938
2946.875977	49799.878906
2945.505859	49593.613281
2944.136719	49927.984375
2942.766602	49978.246094
2941.395508	49848.988281
2940.025391	49879.093750
2938.654297	50240.511719
2937.282227	49977.671875
2935.910156	50203.480469
2934.538086	50359.667969
2933.166016	50325.574219
2931.792969	50211.042969
2930.419922	50257.421875
2929.046875	50481.042969
2927.672852	50373.847656
2926.298828	50323.328125
2924.923828	50860.851563
2923.549805	50448.730469
2922.173828	50759.621094
2920.798828	50444.429688
2919.422852	50474.199219
2918.046875	50611.566406
2916.670898	50810.859375
2915.293945	50891.546875
2913.916992	50782.636719
2912.539063	50885.152344
2911.161133	51268.160156
2909.783203	51192.007813
2908.404297	50997.527344
2907.026367	51261.886719
2905.646484	51302.253906
2904.267578	51318.941406
2902.887695	51304.687500
2901.507813	51661.449219
2900.126953	51616.199219
2898.746094	51383.734375
2897.365234	51836.519531
2895.983398	51745.824219
2894.601563	51849.527344
2893.219727	51791.546875
2891.836914	51828.000000
2890.454102	51708.328125
2889.071289	51617.746094
2887.687500	51998.910156
2886.303711	51476.597656
2884.919922	51598.285156
2883.535156	51665.519531
2882.150391	51756.281250
2880.765625	51792.628906
2879.379883	51790.910156
2877.994141	52057.242188
2876.608398	52307.140625
2875.221680	51830.980469
2873.834961	51756.839844
2872.447266	51997.566406
2871.059570	52460.675781
2869.671875	51865.554688
2868.284180	51729.976563
2866.895508	51867.417969
2865.506836	52255.992188
2864.117188	51824.089844
2862.727539	52011.968750
2861.337891	52257.539063
2859.947266	52132.863281
2858.556641	51769.980469
2857.166016	52545.960938
2855.775391	51972.058594
2854.383789	52165.007813
2852.991211	51863.757813
2851.599609	52018.765625
2850.207031	51912.347656
2848.813477	52404.222656
2847.419922	52002.300781
2846.026367	51760.867188
2844.632813	51762.632813
2843.238281	52106.425781
2841.843750	52041.503906
2840.449219	51724.703125
2839.053711	51712.062500
2837.658203	51704.816406
2836.261719	51586.093750
2834.865234	52112.742188
2833.468750	51706.429688
2832.072266	51756.664063
2830.674805	51397.328125
2829.276367	52038.417969
2827.878906	52228.554688
2826.480469	51898.066406
2825.082031	51849.468750
2823.682617	52028.734375
2822.283203	51354.152344
2820.882813	51802.410156
2819.483398	51802.265625
2818.083008	52205.378906
2816.681641	52412.976563
2815.281250	51869.875000
2813.878906	51873.273438
2812.477539	51753.121094
2811.075195	51473.703125
2809.672852	51885.218750
2808.269531	51718.613281
2806.866211	52144.164063
2805.462891	52077.714844
2804.059570	51979.109375
2802.655273	52241.613281
2801.250000	51953.582031
2799.845703	51949.750000
2798.440430	52137.031250
2797.034180	51886.722656
2795.628906	51811.484375
2794.222656	52359.179688
2792.815430	52139.316406
2791.408203	52197.851563
2790.000977	52135.074219
2788.593750	52152.558594
2787.185547	52016.726563
2785.777344	52233.824219
2784.368164	52094.464844
2782.958984	52523.402344
2781.549805	52660.058594
2780.140625	51968.750000
2778.730469	52481.042969
2777.319336	52407.609375
2775.909180	52656.222656
2774.497070	52847.792969
2773.085938	52760.082031
2771.673828	52965.742188
2770.261719	53201.511719
2768.849609	52671.308594
2767.436523	52729.375000
2766.023438	53481.835938
2764.609375	52866.710938
2763.195313	52839.460938
2761.781250	52989.691406
2760.367188	52806.277344
2758.952148	53080.601563
2757.536133	53152.617188
2756.121094	53313.238281
2754.705078	53048.367188
2753.288086	53632.453125
2751.871094	53599.710938
2750.454102	53494.359375
2749.037109	53511.234375
2747.619141	53505.085938
2746.201172	53249.375000
2744.782227	53675.031250
2743.363281	53828.039063
2741.944336	53896.074219
2740.524414	53912.796875
2739.104492	53842.882813
2737.684570	54160.035156
2736.263672	53862.164063
2734.842773	53746.371094
2733.421875	53971.464844
2732.000000	54203.500000
2730.578125	54216.546875
2729.155273	54030.175781
2727.733398	53750.386719
2726.309570	54038.667969
2724.886719	53762.531250
2723.462891	54193.449219
2722.038086	53695.328125
2720.614258	54163.042969
2719.189453	54209.496094
2717.763672	53840.289063
2716.338867	54017.085938
2714.912109	53994.875000
2713.486328	53948.031250
2712.059570	54291.792969
2710.632813	54380.328125
2709.205078	54108.316406
2707.777344	54033.339844
2706.349609	54387.261719
2704.920898	54301.699219
2703.492188	54511.312500
2702.063477	54701.496094
2700.633789	54629.949219
2699.204102	54644.449219
2697.774414	54083.285156
2696.343750	54561.121094
2694.912109	54707.171875
2693.481445	54248.109375
2692.049805	54488.835938
2690.618164	54263.175781
2689.185547	54295.226563
2687.752930	54372.808594
2686.319336	54415.316406
2684.886719	54676.683594
2683.453125	54437.226563
2682.018555	54719.449219
2680.583984	54758.304688
2679.149414	54975.574219
2677.713867	54993.347656
2676.278320	55033.835938
2674.842773	54801.605469
2673.406250	54616.667969
2671.969727	54847.648438
2670.533203	54783.308594
2669.095703	55255.113281
2667.658203	54504.558594
2666.219727	54796.406250
2664.781250	54712.925781
2663.342773	54980.136719
2661.903320	55086.750000
2660.463867	54657.992188
2659.024414	54801.230469
2657.583984	54813.679688
2656.143555	55077.019531
2654.703125	55052.800781
2653.261719	54906.683594
2651.820313	55354.339844
2650.377930	55065.476563
2648.935547	54976.875000
2647.493164	55123.179688
2646.049805	54921.539063
2644.606445	54968.660156
2643.162109	55052.257813
2641.718750	55292.230469
2640.273438	55328.777344
2638.829102	55568.550781
2637.383789	55288.914063
2635.938477	55485.160156
2634.492188	55453.902344
2633.045898	55799.242188
2631.598633	55684.628906
2630.152344	55889.226563
2628.705078	55918.570313
2627.256836	55715.582031
2625.808594	55764.007813
2624.360352	55964.894531
2622.911133	55949.125000
2621.461914	56002.632813
2620.012695	55860.453125
2618.562500	55794.500000
2617.112305	55676.660156
2615.661133	55967.203125
2614.210938	55958.339844
2612.758789	56231.363281
2611.307617	56324.433594
2609.855469	56303.371094
2608.402344	56169.992188
2606.950195	56736.355469
2605.496094	56428.480469
2604.042969	56286.519531
2602.588867	56103.195313
2601.134766	56415.281250
2599.679688	56216.472656
2598.224609	55912.539063
2596.769531	56391.703125
2595.313477	56503.378906
2593.857422	56673.597656
2592.401367	56297.453125
2590.944336	56653.695313
2589.486328	56403.464844
2588.029297	56880.027344
2586.571289	56486.968750
2585.112305	56245.558594
2583.654297	56591.015625
2582.195313	56592.242188
2580.735352	56338.933594
2579.275391	56813.039063
2577.815430	56680.113281
2576.354492	56808.464844
2574.893555	56520.972656
2573.432617	56474.089844
2571.970703	56361.968750
2570.508789	56891.968750
2569.045898	56467.417969
2567.583984	56636.773438
2566.120117	56173.031250
2564.657227	56681.945313
2563.193359	56744.796875
2561.728516	56814.468750
2560.263672	56544.777344
2558.798828	56708.687500
2557.333984	57047.218750
2555.868164	56882.117188
2554.402344	56571.570313
2552.935547	56651.417969
2551.468750	57071.734375
2550.000977	56420.925781
2548.534180	56812.003906
2547.065430	56910.492188
2545.597656	56622.597656
2544.128906	57038.945313
2542.659180	56824.621094
2541.190430	56779.503906
2539.720703	56485.082031
2538.250000	56875.410156
2536.779297	56669.855469
2535.308594	56604.324219
2533.836914	56777.652344
2532.365234	56481.867188
2530.893555	56900.660156
2529.420898	57235.710938
2527.948242	56982.625000
2526.475586	56998.859375
2525.001953	56764.687500
2523.527344	56998.933594
2522.053711	56678.042969
2520.579102	57007.496094
2519.103516	57129.179688
2517.627930	56961.589844
2516.152344	57249.886719
2514.675781	57274.476563
2513.199219	57356.847656
2511.722656	57099.273438
2510.245117	56882.601563
2508.767578	56637.160156
2507.290039	57392.070313
2505.811523	57331.664063
2504.333008	57089.671875
2502.853516	57268.625000
2501.374023	57408.464844
2499.893555	57120.828125
2498.414063	57126.667969
2496.932617	57457.976563
2495.452148	57716.234375
2493.970703	57145.835938
2492.488281	57097.437500
2491.006836	57348.800781
2489.524414	57232.644531
2488.041016	57458.445313
2486.557617	57636.746094
2485.074219	57811.562500
2483.589844	57698.765625
2482.105469	57508.242188
2480.621094	57627.160156
2479.135742	57544.898438
2477.650391	57562.359375
2476.164063	57991.960938
2474.677734	57813.394531
2473.191406	58038.417969
2471.704102	57844.730469
2470.216797	57889.062500
2468.728516	57992.410156
2467.240234	58117.628906
2465.751953	57841.472656
2464.262695	58140.281250
2462.773438	58079.964844
2461.283203	58275.773438
2459.793945	58218.812500
2458.302734	58182.082031
2456.812500	58322.140625
2455.321289	58522.714844
2453.829102	58041.679688
2452.336914	58331.375000
2450.844727	58504.863281
2449.351563	58249.496094
2447.858398	58503.597656
2446.365234	58095.417969
2444.871094	58246.925781
2443.376953	58391.632813
2441.882813	58304.523438
2440.387695	58741.250000
2438.891602	58669.187500
2437.395508	58504.863281
2435.899414	58387.593750
2434.403320	58364.292969
2432.906250	58193.453125
2431.409180	58500.429688
2429.911133	58224.050781
2428.413086	58122.050781
2426.914063	58403.671875
2425.416016	58343.531250
2423.916016	58671.812500
2422.416992	58683.593750
2420.916992	58121.425781
2419.416016	58186.859375
2417.915039	58334.199219
2416.414063	58611.878906
2414.912109	58638.675781
2413.410156	58738.980469
2411.908203	58723.949219
2410.405273	58481.761719
2408.902344	58675.523438
2407.398438	58314.933594
2405.894531	58523.648438
2404.390625	58260.046875
2402.885742	58822.304688
2401.380859	58895.628906
2399.875977	58385.355469
2398.370117	58237.050781
2396.863281	58760.390625
2395.356445	58627.046875
2393.849609	58768.585938
2392.342773	58598.664063
2390.834961	58913.261719
2389.327148	58696.773438
2387.818359	59269.074219
2386.309570	58713.253906
2384.799805	58616.707031
2383.290039	58380.546875
2381.780273	58613.234375
2380.269531	59000.339844
2378.758789	58790.828125
2377.248047	59323.835938
2375.736328	58920.058594
2374.223633	58758.851563
2372.711914	58914.707031
2371.199219	58639.089844
2369.685547	59265.972656
2368.171875	59225.878906
2366.658203	58900.636719
2365.143555	59122.527344
2363.628906	58963.175781
2362.114258	58785.675781
2360.598633	58835.164063
2359.083008	59045.230469
2357.566406	59187.312500
2356.049805	58839.457031
2354.532227	59050.996094
2353.014648	59042.429688
2351.497070	59111.585938
2349.978516	58577.269531
2348.459961	59120.851563
2346.941406	58872.656250
2345.421875	59296.929688
2343.902344	59103.308594
2342.381836	59628.011719
2340.861328	59178.535156
2339.340820	59582.468750
2337.819336	59261.914063
2336.296875	58939.867188
2334.775391	59173.687500
2333.252930	59476.621094
2331.729492	59339.343750
2330.206055	60108.367188
2328.682617	59717.304688
2327.158203	59497.707031
2325.633789	59319.378906
2324.109375	59371.582031
2322.583984	59112.734375
2321.057617	59513.722656
2319.532227	59751.671875
2318.005859	59535.660156
2316.478516	59645.246094
2314.951172	59265.019531
2313.423828	59404.179688
2311.895508	58958.492188
2310.367188	59100.933594
2308.838867	59391.058594
2307.309570	59566.128906
2305.779297	59672.187500
2304.250000	59748.656250
2302.718750	60108.812500
2301.188477	59894.898438
2299.657227	59561.425781
2298.125000	59411.667969
2296.593750	59622.421875
2295.061523	59905.136719
2293.528320	59450.804688
2291.995117	59491.109375
2290.461914	59482.289063
2288.927734	59239.480469
2287.393555	59209.449219
2285.858398	59292.273438
2284.323242	59175.582031
2282.788086	59562.394531
2281.251953	59828.070313
2279.715820	59539.769531
2278.178711	59236.914063
2276.641602	59282.011719
2275.103516	59663.371094
2273.566406	59600.609375
2272.027344	59606.406250
2270.489258	59610.558594
2268.950195	59874.000000
2267.410156	59136.261719
2265.870117	58938.402344
2264.330078	59609.175781
2262.789063	59795.753906
2261.248047	59503.402344
2259.706055	59686.640625
2258.165039	59466.082031
2256.622070	59650.855469
2255.079102	59757.429688
2253.536133	59650.867188
2251.993164	59778.515625
2250.449219	59641.101563
2248.904297	59237.203125
2247.359375	59966.046875
2245.814453	59775.066406
2244.269531	59895.992188
2242.723633	59818.769531
2241.176758	59877.933594
2239.629883	59922.449219
2238.083008	59850.132813
2236.535156	59970.855469
2234.987305	60102.859375
2233.439453	60199.128906
2231.890625	60220.789063
2230.340820	60454.683594
2228.791992	60184.687500
2227.242188	60488.093750
2225.691406	60694.199219
2224.140625	60553.820313
2222.589844	60169.167969
2221.038086	60519.156250
2219.486328	60917.476563
2217.933594	60460.250000
2216.380859	60375.042969
2214.828125	60692.269531
2213.274414	61038.410156
2211.719727	61072.628906
2210.166016	60425.382813
2208.611328	60637.308594
2207.055664	60647.378906
2205.500000	60634.847656
2203.944336	61209.488281
2202.387695	61003.285156
2200.831055	60753.648438
2199.273438	60865.195313
2197.715820	60904.160156
2196.158203	60986.597656
2194.599609	60994.898438
2193.041016	61347.769531
2191.481445	61412.300781
2189.921875	61505.765625
2188.362305	61158.328125
2186.801758	61430.339844
2185.240234	61150.632813
2183.679688	60999.675781
2182.117188	61194.351563
2180.555664	60958.292969
2178.993164	61371.339844
2177.430664	61633.199219
2175.867188	61186.863281
2174.302734	61552.960938
2172.739258	61751.968750
2171.174805	61759.953125
2169.609375	61484.035156
2168.043945	61434.347656
2166.478516	61936.136719
2164.912109	61774.164063
2163.345703	61876.632813
2161.779297	61636.257813
2160.211914	61431.234375
2158.643555	61745.027344
2157.075195	61719.332031
2155.506836	61922.464844
2153.937500	61941.515625
2152.368164	61562.324219
2150.798828	61827.679688
2149.228516	62083.300781
2147.657227	62292.437500
2146.086914	61923.113281
2144.515625	61506.058594
2142.943359	61705.582031
2141.371094	61647.980469
