#Wave		#Intensity
3550.258789	40674.128906
3549.027344	40240.125000
3547.794922	40445.441406
3546.562500	40284.054688
3545.330078	40273.417969
3544.096680	40150.808594
3542.863281	40492.320313
3541.629883	40215.050781
3540.396484	40367.183594
3539.162109	40378.890625
3537.928711	40160.785156
3536.693359	40337.214844
3535.458984	40415.992188
3534.223633	40344.335938
3532.989258	39953.691406
3531.752930	40477.382813
3530.517578	40182.328125
3529.281250	40271.183594
3528.044922	40384.359375
3526.808594	40054.996094
3525.571289	40030.164063
3524.333984	40526.761719
3523.096680	40165.109375
3521.859375	40326.835938
3520.621094	40476.320313
3519.382813	40443.296875
3518.144531	40321.105469
3516.906250	40608.265625
3515.666992	40143.722656
3514.427734	40795.359375
3513.188477	40448.410156
3511.948242	40674.542969
3510.708008	40416.820313
3509.467773	40337.285156
3508.227539	40686.695313
3506.986328	40384.621094
3505.745117	40592.304688
3504.503906	40419.773438
3503.262695	40592.980469
3502.020508	40475.082031
3500.778320	40452.199219
3499.535156	40627.292969
3498.292969	40697.285156
3497.049805	40692.527344
3495.806641	40718.046875
3494.563477	40636.578125
3493.319336	41009.183594
3492.075195	40838.906250
3490.831055	41215.332031
3489.585938	40722.410156
3488.340820	40741.816406
3487.095703	40894.250000
3485.850586	40879.339844
3484.604492	40902.714844
3483.358398	41018.742188
3482.112305	41040.054688
3480.866211	40837.843750
3479.619141	40671.949219
3478.372070	41124.035156
3477.125000	41163.394531
3475.876953	41094.097656
3474.629883	41079.132813
3473.380859	41013.894531
3472.132813	40898.414063
3470.883789	41126.710938
3469.634766	41145.894531
3468.385742	41175.117188
3467.136719	40973.304688
3465.886719	41129.066406
3464.636719	40885.179688
3463.386719	40988.687500
3462.135742	40835.246094
3460.884766	41241.707031
3459.633789	40971.910156
3458.381836	40966.984375
3457.130859	41044.269531
3455.878906	41161.613281
3454.625977	41036.367188
3453.374023	41105.558594
3452.121094	41234.820313
3450.868164	41329.968750
3449.614258	41072.601563
3448.361328	41197.765625
3447.107422	40962.550781
3445.853516	40933.570313
3444.598633	41138.707031
3443.343750	41195.714844
3442.088867	41178.691406
3440.833984	41199.664063
3439.578125	41248.609375
3438.322266	41577.347656
3437.066406	41502.285156
3435.809570	41435.246094
3434.553711	41278.343750
3433.295898	41311.218750
3432.039063	40723.156250
3430.782227	41446.777344
3429.524414	40834.984375
3428.265625	41262.960938
3427.007813	41415.468750
3425.749023	40977.578125
3424.490234	40870.867188
3423.231445	41388.144531
3421.971680	41263.441406
3420.711914	41234.429688
3419.452148	40938.484375
3418.192383	41180.417969
3416.931641	41161.390625
3415.670898	41546.500000
3414.409180	41109.406250
3413.148438	41197.847656
3411.886719	40830.648438
3410.625000	41253.265625
3409.362305	40987.628906
3408.099609	41056.117188
3406.836914	41062.953125
3405.574219	40491.472656
3404.311523	41116.335938
3403.047852	40803.324219
3401.783203	41121.988281
3400.519531	40560.910156
3399.254883	40855.660156
3397.990234	40924.019531
3396.725586	41085.605469
3395.459961	40890.031250
3394.194336	40736.187500
3392.928711	40639.914063
3391.663086	40615.046875
3390.396484	40633.792969
3389.129883	40704.046875
3387.862305	40463.222656
3386.595703	40781.062500
3385.328125	41071.035156
3384.060547	40871.851563
3382.791992	40468.875000
3381.523438	40426.242188
3380.254883	40834.730469
3378.986328	40855.324219
3377.716797	40899.636719
3376.447266	40301.335938
3375.177734	40638.304688
3373.908203	40591.710938
3372.637695	40564.894531
3371.367188	40214.113281
3370.095703	40584.355469
3368.825195	40727.359375
3367.553711	40465.593750
3366.282227	40697.367188
3365.009766	40733.675781
3363.737305	40213.636719
3362.464844	40309.199219
3361.192383	40775.441406
3359.918945	40454.843750
3358.645508	40705.988281
3357.372070	41045.695313
3356.097656	40343.031250
3354.823242	40560.535156
3353.548828	40750.363281
3352.274414	40678.250000
3350.999023	40556.957031
3349.723633	40325.503906
3348.447266	40719.820313
3347.171875	40742.179688
3345.895508	41071.320313
3344.619141	40611.863281
3343.341797	40427.812500
3342.064453	40642.800781
3340.787109	40498.117188
3339.509766	40748.343750
3338.231445	40859.007813
3336.953125	40633.851563
3335.674805	40821.046875
3334.395508	40668.609375
3333.117188	40706.570313
3331.836914	40889.687500
3330.557617	41023.679688
3329.277344	40951.714844
3327.997070	40795.472656
3326.716797	40339.414063
3325.435547	40604.687500
3324.154297	40491.718750
3322.873047	40570.750000
3321.591797	40751.570313
3320.309570	40466.343750
3319.027344	40870.238281
3317.744141	40890.386719
3316.461914	40673.785156
3315.178711	40674.398438
3313.894531	40833.414063
3312.611328	40746.000000
3311.327148	40732.898438
3310.042969	41108.707031
3308.757813	41109.199219
3307.472656	40865.511719
3306.187500	40938.308594
3304.902344	40727.949219
3303.616211	41062.320313
3302.330078	41140.863281
3301.043945	41145.222656
3299.757813	40858.910156
3298.470703	40970.589844
3297.183594	40974.972656
3295.895508	41111.910156
3294.607422	41281.914063
3293.319336	41336.867188
3292.031250	41093.734375
3290.742188	41057.156250
3289.454102	41304.890625
3288.164063	41209.871094
3286.875000	41270.597656
3285.584961	41130.859375
3284.294922	41002.859375
3283.003906	41164.718750
3281.713867	41207.878906
3280.422852	41459.042969
3279.130859	41459.347656
3277.839844	41492.683594
3276.547852	41531.828125
3275.254883	41403.902344
3273.962891	41380.898438
3272.669922	41420.027344
3271.376953	41734.765625
3270.083008	41284.750000
3268.790039	41593.546875
3267.496094	41745.078125
3266.201172	41977.988281
3264.907227	41315.035156
3263.612305	41507.218750
3262.316406	41559.777344
3261.021484	41323.613281
3259.725586	41521.460938
3258.429688	41680.484375
3257.132813	41481.230469
3255.836914	41531.773438
3254.540039	41355.859375
3253.242188	41897.859375
3251.945313	41578.785156
3250.647461	41662.121094
3249.348633	41903.964844
3248.050781	41503.902344
3246.751953	41529.207031
3245.453125	41496.527344
3244.153320	41473.515625
3242.853516	41983.558594
3241.553711	41491.230469
3240.253906	41603.351563
3238.953125	41312.046875
3237.652344	41669.207031
3236.351563	41700.175781
3235.049805	41586.476563
3233.748047	41615.511719
3232.446289	41569.343750
3231.143555	42012.746094
3229.840820	41845.105469
3228.538086	41594.695313
3227.235352	41554.335938
3225.931641	41619.898438
3224.627930	41945.324219
3223.324219	41458.363281
3222.019531	41554.675781
3220.714844	41460.484375
3219.410156	41518.273438
3218.104492	41506.808594
3216.798828	41791.410156
3215.493164	41870.214844
3214.186523	41820.230469
3212.879883	41178.542969
3211.573242	41820.195313
3210.266602	41812.488281
3208.958984	41981.410156
3207.651367	41985.175781
3206.343750	41896.828125
3205.035156	41302.023438
3203.726563	41603.234375
3202.417969	41674.183594
3201.108398	42247.406250
3199.798828	41595.546875
3198.489258	41390.488281
3197.178711	41905.882813
3195.868164	41675.937500
3194.557617	41637.589844
3193.247070	41503.531250
3191.935547	41275.734375
3190.624023	41574.300781
3189.311523	41476.683594
3188.000000	41367.632813
3186.687500	41312.171875
3185.374023	41254.820313
3184.061523	41316.000000
3182.748047	41766.992188
3181.433594	41657.976563
3180.120117	41453.500000
3178.805664	41577.578125
3177.491211	41632.863281
3176.175781	41884.722656
3174.860352	41600.214844
3173.544922	41483.730469
3172.229492	41523.707031
3170.913086	41481.656250
3169.596680	41174.609375
3168.280273	41224.148438
3166.962891	41698.628906
3165.645508	41412.687500
3164.327148	41237.351563
3163.009766	41820.035156
3161.691406	41439.054688
3160.373047	41178.167969
3159.053711	41006.839844
3157.734375	41069.605469
3156.415039	41489.945313
3155.094727	41347.175781
3153.774414	41377.484375
3152.454102	40964.878906
3151.133789	41019.957031
3149.812500	41200.402344
3148.491211	41276.289063
3147.168945	41338.839844
3145.847656	41262.757813
3144.525391	41323.375000
3143.202148	41025.289063
3141.879883	41218.734375
3140.556641	41271.718750
3139.232422	41208.992188
3137.909180	41021.160156
3136.584961	41284.542969
3135.259766	41106.242188
3133.935547	41172.433594
3132.610352	41348.449219
3131.285156	40783.921875
3129.958984	41086.789063
3128.632813	41205.906250
3127.306641	41164.101563
3125.980469	41141.234375
3124.653320	41328.335938
3123.326172	41401.875000
3121.998047	41507.519531
3120.670898	41305.003906
3119.341797	41319.906250
3118.013672	41298.894531
3116.684570	41281.667969
3115.355469	41241.785156
3114.026367	41041.433594
3112.696289	41430.089844
3111.366211	41529.832031
3110.036133	40950.320313
3108.705078	41302.875000
3107.374023	41232.843750
3106.042969	41406.046875
3104.711914	41115.480469
3103.379883	41037.988281
3102.046875	41280.812500
3100.714844	41054.507813
3099.381836	41331.101563
3098.048828	41313.859375
3096.714844	41458.496094
3095.380859	41501.445313
3094.046875	41393.855469
3092.712891	41256.218750
3091.377930	41494.738281
3090.042969	41486.855469
3088.707031	41544.761719
3087.372070	41664.644531
3086.036133	41562.777344
3084.699219	41500.398438
3083.362305	41282.187500
3082.025391	41270.585938
3080.688477	41942.191406
3079.350586	41620.804688
3078.012695	41672.902344
3076.674805	41576.800781
3075.335938	41908.273438
3073.997070	41787.781250
3072.658203	41686.078125
3071.318359	41460.750000
3069.978516	41520.277344
3068.638672	41469.269531
3067.298828	41716.011719
3065.958008	41861.539063
3064.616211	41589.621094
3063.275391	41931.574219
3061.933594	41657.886719
3060.591797	41922.972656
3059.249023	41791.519531
3057.906250	41718.074219
3056.563477	41739.976563
3055.219727	41821.656250
3053.876953	41649.234375
3052.532227	42128.699219
3051.188477	42008.558594
3049.843750	41903.402344
3048.499023	41981.191406
3047.153320	41711.886719
3045.808594	42030.320313
3044.461914	41423.554688
3043.116211	41829.527344
3041.769531	41991.105469
3040.422852	41677.367188
3039.076172	41674.929688
3037.728516	41609.156250
3036.380859	41917.742188
3035.032227	42069.773438
3033.683594	41990.910156
3032.334961	41770.640625
3030.986328	41758.855469
3029.636719	41776.835938
3028.287109	41949.156250
3026.937500	41636.125000
3025.586914	41522.128906
3024.236328	41612.605469
3022.885742	41727.187500
3021.534180	41319.757813
3020.182617	41904.175781
3018.830078	41569.296875
3017.478516	41939.910156
3016.125977	42130.339844
3014.772461	41487.656250
3013.419922	41804.222656
3012.066406	41638.492188
3010.711914	41788.007813
3009.358398	42013.441406
3008.003906	41579.070313
3006.648438	41565.449219
3005.292969	41392.539063
3003.937500	41569.687500
3002.582031	41698.613281
3001.225586	41362.910156
2999.869141	41478.863281
2998.512695	41163.710938
2997.155273	41318.488281
2995.797852	41301.218750
2994.440430	41383.781250
2993.082031	41251.910156
2991.723633	41203.242188
2990.365234	40975.406250
2989.005859	41211.242188
2987.646484	41086.906250
2986.287109	41080.765625
2984.926758	41288.710938
2983.566406	41051.878906
2982.206055	40787.484375
2980.844727	41139.183594
2979.483398	41129.332031
2978.122070	40940.675781
2976.759766	41253.371094
2975.397461	41158.730469
2974.035156	41218.859375
2972.671875	41339.730469
2971.308594	41756.960938
2969.945313	41207.621094
2968.581055	41103.878906
2967.216797	41200.726563
2965.852539	41091.511719
2964.487305	41190.140625
2963.122070	40961.472656
2961.756836	41346.812500
2960.390625	41039.191406
2959.024414	41067.910156
2957.658203	40951.511719
2956.291016	41255.671875
2954.923828	41076.855469
2953.556641	41312.921875
2952.188477	41203.894531
2950.820313	41228.839844
2949.452148	41136.386719
2948.083008	41342.855469
2946.713867	41376.898438
2945.343750	40965.566406
2943.974609	41237.875000
2942.604492	41431.281250
2941.233398	41415.804688
2939.862305	41330.753906
2938.491211	41503.847656
2937.120117	41356.585938
2935.748047	41487.496094
2934.375977	41285.425781
2933.003906	41293.753906
2931.630859	41653.117188
2930.257813	41836.820313
2928.883789	41669.562500
2927.509766	41833.070313
2926.135742	41875.941406
2924.761719	41988.179688
2923.386719	41667.671875
2922.011719	41633.875000
2920.635742	41663.960938
2919.260742	41808.960938
2917.883789	42282.195313
2916.507813	41535.285156
2915.130859	41647.382813
2913.753906	41515.195313
2912.375977	41701.945313
2910.998047	41659.062500
2909.620117	41791.042969
2908.242188	41708.089844
2906.863281	41960.128906
2905.483398	41691.535156
2904.104492	41739.660156
2902.724609	41758.656250
2901.344727	41732.167969
2899.963867	42043.875000
2898.583008	41639.230469
2897.202148	41838.125000
2895.820313	42383.941406
2894.438477	42148.425781
2893.056641	41927.546875
2891.673828	41681.351563
2890.291016	42085.078125
2888.908203	42038.570313
2887.524414	42102.746094
2886.140625	42292.039063
2884.755859	42274.515625
2883.372070	42182.664063
2881.987305	42524.031250
2880.601563	42327.058594
2879.215820	42242.496094
2877.830078	42090.957031
2876.444336	42028.214844
2875.057617	41903.945313
2873.670898	42094.640625
2872.283203	41974.027344
2870.895508	41936.679688
2869.507813	41906.578125
2868.120117	41773.429688
2866.731445	41992.824219
2865.342773	42233.796875
2863.953125	42001.281250
2862.563477	42083.167969
2861.173828	42351.015625
2859.783203	41846.011719
2858.392578	42009.085938
2857.001953	41769.667969
2855.610352	42062.570313
2854.218750	41801.601563
2852.827148	41793.210938
2851.434570	41797.433594
2850.041992	41839.500000
2848.649414	41614.863281
2847.255859	41853.304688
2845.862305	41835.878906
2844.467773	41420.531250
2843.073242	41518.421875
2841.678711	41565.871094
2840.284180	41422.566406
2838.888672	41444.824219
2837.493164	41538.996094
2836.096680	41340.058594
2834.700195	41340.734375
2833.303711	41465.402344
2831.906250	41212.710938
2830.509766	41405.597656
2829.111328	41235.644531
2827.713867	41234.527344
2826.315430	40729.050781
2824.916016	41205.363281
2823.517578	41204.242188
2822.118164	41041.699219
2820.717773	40703.503906
2819.317383	41071.785156
2817.916992	41328.757813
2816.516602	40764.964844
2815.115234	40937.687500
2813.713867	41018.984375
2812.311523	40897.917969
2810.909180	40980.964844
2809.506836	41099.761719
2808.104492	40837.406250
2806.701172	41437.332031
2805.296875	41039.105469
2803.893555	40987.906250
2802.489258	40868.812500
2801.084961	41173.277344
2799.679688	41202.464844
2798.274414	40904.781250
2796.868164	40846.515625
2795.462891	40877.535156
2794.056641	40826.437500
2792.649414	40677.222656
2791.242188	40847.390625
2789.834961	40694.667969
2788.427734	40918.230469
2787.019531	40954.507813
2785.611328	41010.367188
2784.202148	40987.800781
2782.792969	40983.050781
2781.383789	40955.152344
2779.973633	40804.417969
2778.563477	40926.082031
2777.153320	41154.449219
2775.742188	41227.925781
2774.331055	40979.429688
2772.918945	41296.511719
2771.507813	40863.226563
2770.095703	40895.808594
2768.682617	41173.574219
2767.269531	41159.863281
2765.856445	41018.285156
2764.442383	41444.949219
2763.028320	40884.433594
2761.614258	41271.871094
2760.200195	41009.738281
2758.785156	41070.562500
2757.369141	41251.945313
2755.953125	41034.320313
2754.537109	40903.652344
2753.121094	41056.574219
2751.704102	41397.207031
2750.287109	41301.957031
2748.869141	41098.734375
2747.452148	41093.882813
2746.033203	41393.445313
2744.615234	41218.648438
2743.196289	41043.937500
2741.777344	41424.628906
2740.357422	41564.664063
2738.937500	41446.550781
2737.516602	41323.183594
2736.096680	41422.496094
2734.675781	41484.656250
2733.253906	41039.964844
2731.832031	41388.187500
2730.410156	41547.378906
2728.988281	41245.921875
2727.565430	41253.339844
2726.141602	41334.824219
2724.718750	41155.300781
2723.294922	41254.390625
2721.870117	41617.792969
2720.446289	41526.414063
2719.021484	41405.136719
2717.595703	41516.375000
2716.169922	41423.320313
2714.744141	41372.550781
2713.318359	41353.480469
2711.891602	41065.230469
2710.463867	41487.726563
2709.037109	41159.136719
2707.609375	41270.214844
2706.181641	41402.324219
2704.752930	40979.097656
2703.324219	41074.316406
2701.894531	41482.105469
2700.464844	41215.433594
2699.035156	41149.007813
2697.605469	40879.035156
2696.174805	41032.039063
2694.744141	41170.929688
2693.312500	41269.410156
2691.880859	41196.019531
2690.449219	41019.250000
2689.016602	41103.664063
2687.583984	41011.085938
2686.150391	41062.175781
2684.717773	41162.261719
2683.283203	41185.269531
2681.849609	41393.777344
2680.415039	41257.480469
2678.980469	40949.812500
2677.544922	41390.812500
2676.109375	41370.000000
2674.673828	41232.078125
2673.237305	41061.015625
2671.800781	41361.765625
2670.363281	41323.496094
2668.925781	41018.066406
2667.488281	41088.136719
2666.050781	40498.406250
2664.612305	41243.863281
2663.172852	41174.250000
2661.734375	41268.609375
2660.294922	40949.675781
2658.854492	41040.550781
2657.414063	40925.730469
2655.973633	41263.972656
2654.533203	40879.144531
2653.091797	40813.199219
2651.650391	40996.250000
2650.208008	40966.851563
2648.765625	41033.171875
2647.323242	41050.742188
2645.879883	41082.214844
2644.436523	41367.542969
2642.992188	41063.394531
2641.547852	41007.929688
2640.103516	41096.703125
2638.659180	41126.367188
2637.213867	41133.433594
2635.767578	41239.460938
2634.321289	41078.113281
2632.875000	40989.726563
2631.428711	41024.566406
2629.981445	40929.292969
2628.534180	41284.921875
2627.085938	41347.386719
2625.637695	41430.613281
2624.189453	41269.468750
2622.740234	41189.824219
2621.291016	41250.500000
2619.841797	41141.457031
2618.391602	41087.859375
2616.941406	41151.960938
2615.490234	41056.851563
2614.040039	41055.195313
2612.587891	40965.339844
2611.136719	41086.445313
2609.684570	41186.746094
2608.231445	41039.886719
2606.778320	41195.421875
2605.325195	41014.085938
2603.872070	41267.960938
2602.417969	40924.417969
2600.962891	41100.519531
2599.508789	40834.828125
2598.053711	40822.835938
2596.597656	41136.777344
2595.142578	41326.425781
2593.685547	41248.804688
2592.229492	41091.953125
2590.772461	40978.242188
2589.315430	41443.296875
2587.857422	41484.523438
2586.399414	41453.421875
2584.941406	41222.687500
2583.482422	41179.613281
2582.023438	40990.339844
2580.563477	41182.945313
2579.103516	40716.949219
2577.643555	40758.253906
2576.182617	40646.593750
2574.721680	41136.292969
2573.260742	40909.503906
2571.798828	40590.101563
2570.336914	40868.277344
2568.874023	41110.261719
2567.411133	41031.257813
2565.948242	40679.535156
2564.484375	40616.105469
2563.020508	40725.875000
2561.556641	41018.996094
2560.091797	40607.636719
2558.626953	40527.140625
2557.161133	40436.402344
2555.695313	40796.070313
2554.229492	40939.839844
2552.762695	40818.250000
2551.295898	41074.867188
2549.829102	40583.789063
2548.361328	40842.039063
2546.892578	40715.449219
2545.424805	40629.945313
2543.956055	40705.117188
2542.486328	40795.625000
2541.017578	40629.875000
2539.547852	40812.558594
2538.077148	40682.730469
2536.606445	40255.984375
2535.135742	40457.382813
2533.664063	40546.085938
2532.192383	40465.898438
2530.720703	40452.242188
2529.248047	40537.457031
2527.775391	40537.417969
2526.301758	40510.113281
2524.828125	40179.625000
2523.354492	40373.792969
2521.879883	40312.488281
2520.405273	40435.031250
2518.929688	40523.476563
2517.455078	40424.742188
2515.978516	40300.546875
2514.502930	40484.160156
2513.026367	40655.781250
2511.548828	40740.636719
2510.071289	40198.511719
2508.593750	40147.550781
2507.116211	40507.558594
2505.637695	40412.390625
2504.158203	40417.410156
2502.679688	40458.058594
2501.200195	40203.500000
2499.719727	40300.140625
2498.239258	40249.210938
2496.758789	40513.601563
2495.277344	40566.011719
2493.795898	40318.511719
2492.314453	40467.484375
2490.832031	40392.851563
2489.349609	40401.210938
2487.867188	40160.753906
2486.383789	40485.582031
2484.899414	40148.792969
2483.415039	40366.902344
2481.930664	40179.101563
2480.446289	40549.218750
2478.960938	40231.328125
2477.475586	40629.960938
2475.989258	40631.445313
2474.502930	40342.472656
2473.016602	40580.378906
2471.529297	40424.894531
2470.041992	40563.093750
2468.553711	40272.730469
2467.065430	40292.832031
2465.577148	40441.062500
2464.087891	40444.246094
2462.598633	40191.265625
2461.108398	40336.027344
2459.618164	40374.593750
2458.127930	40285.160156
2456.636719	40345.597656
2455.145508	40040.769531
2453.654297	40518.535156
2452.162109	40271.007813
2450.669922	40487.781250
2449.176758	40998.679688
2447.683594	40623.453125
2446.189453	40468.566406
2444.696289	40412.875000
2443.201172	40276.589844
2441.707031	40358.664063
2440.211914	39655.015625
2438.715820	40252.464844
2437.220703	40223.730469
2435.723633	40245.328125
2434.227539	40137.781250
2432.730469	40182.855469
2431.233398	40335.187500
2429.735352	40158.976563
2428.237305	40188.921875
2426.738281	40287.523438
2425.239258	40052.839844
2423.740234	39927.089844
2422.240234	39757.882813
2420.740234	39995.355469
2419.240234	40093.859375
2417.739258	39938.109375
2416.238281	40158.621094
2414.736328	39884.246094
2413.234375	39788.816406
2411.731445	39649.992188
2410.229492	39791.835938
2408.725586	40197.437500
2407.222656	39738.082031
2405.718750	39586.046875
2404.213867	39832.863281
2402.708984	39882.714844
2401.204102	39855.824219
2399.699219	39672.218750
2398.193359	39735.398438
2396.686523	39926.851563
2395.179688	39773.343750
2393.672852	39688.203125
2392.166016	39891.164063
2390.658203	39687.835938
2389.149414	39700.960938
2387.641602	39877.128906
2386.131836	39529.234375
2384.623047	39692.046875
2383.113281	39660.250000
2381.603516	39817.953125
2380.092773	39839.308594
2378.582031	39549.992188
2377.070313	39775.683594
2375.558594	39541.316406
2374.046875	39776.847656
2372.534180	39562.507813
2371.021484	39622.035156
2369.507813	39704.750000
2367.994141	39596.714844
2366.480469	39689.332031
2364.965820	39334.386719
2363.451172	39508.210938
2361.936523	39802.875000
2360.420898	39618.746094
2358.904297	39429.746094
2357.388672	39651.355469
2355.872070	39700.738281
2354.354492	39627.664063
2352.836914	39491.765625
2351.319336	39375.781250
2349.800781	39625.203125
2348.282227	39588.570313
2346.763672	39570.125000
2345.244141	39183.308594
2343.723633	39308.648438
2342.204102	39579.210938
2340.682617	39187.730469
2339.162109	39435.074219
2337.640625	39241.796875
2336.119141	39210.253906
2334.596680	39412.871094
2333.074219	39598.894531
2331.550781	39204.691406
2330.027344	39369.246094
2328.503906	39256.976563
2326.979492	39521.878906
2325.455078	39495.234375
2323.930664	39034.062500
2322.405273	39061.847656
2320.878906	39444.964844
2319.353516	39112.437500
2317.826172	39202.652344
2316.299805	39174.464844
2314.772461	39405.945313
2313.245117	39394.140625
2311.716797	39149.089844
2310.188477	39275.289063
2308.659180	38997.554688
2307.129883	38862.753906
2305.600586	39184.183594
2304.070313	39057.601563
2302.540039	39078.679688
2301.008789	39299.777344
2299.477539	39004.414063
2297.946289	39174.609375
2296.414063	38922.019531
2294.881836	38910.328125
2293.348633	38919.929688
2291.815430	39222.554688
2290.282227	38806.535156
2288.748047	39513.175781
2287.213867	39359.015625
2285.678711	38683.246094
2284.143555	38836.742188
2282.607422	38694.308594
2281.072266	38810.132813
2279.535156	38840.941406
2277.999023	39226.148438
2276.460938	38559.601563
2274.923828	38582.281250
2273.385742	38753.453125
2271.847656	38727.113281
2270.308594	38770.921875
2268.769531	38702.183594
2267.229492	38628.589844
2265.689453	38801.140625
2264.149414	38892.125000
2262.608398	38784.316406
2261.067383	38914.335938
2259.526367	38648.632813
2257.984375	38679.320313
2256.441406	38708.363281
2254.898438	38852.898438
2253.355469	39013.617188
2251.812500	38369.335938
2250.268555	38705.664063
2248.723633	38993.058594
2247.178711	38971.578125
2245.633789	38724.316406
2244.087891	38579.488281
2242.541992	38842.250000
2240.996094	38854.906250
2239.449219	38792.906250
2237.902344	38503.808594
2236.354492	38716.023438
2234.806641	38813.000000
2233.257813	38918.027344
2231.708984	38408.781250
2230.160156	38836.273438
2228.610352	38463.367188
2227.060547	38535.972656
2225.509766	38629.585938
2223.958984	38575.859375
2222.408203	38559.375000
2220.856445	38382.746094
2219.304688	38646.097656
2217.751953	38736.308594
2216.199219	38381.953125
2214.645508	38375.218750
2213.092773	38782.074219
2211.538086	38794.613281
2209.983398	38639.207031
2208.428711	38533.925781
2206.874023	38493.250000
2205.318359	38688.160156
2203.761719	38912.000000
2202.206055	38838.996094
2200.648438	38537.085938
2199.091797	38880.058594
2197.534180	38826.441406
2195.975586	38748.687500
2194.416992	39033.343750
2192.858398	39000.648438
2191.298828	39153.089844
2189.739258	38864.496094
2188.179688	38638.796875
2186.619141	38807.285156
2185.057617	38736.082031
2183.497070	38889.980469
2181.934570	38732.000000
2180.373047	38831.179688
2178.810547	38917.453125
2177.247070	39345.750000
2175.683594	38585.722656
2174.120117	38558.019531
2172.555664	38876.945313
2170.991211	38778.585938
2169.426758	38595.269531
2167.861328	38929.957031
2166.295898	38834.855469
2164.729492	38544.285156
2163.163086	38672.031250
2161.595703	38895.812500
2160.028320	38645.476563
2158.459961	38803.503906
2156.892578	38460.480469
2155.323242	38760.875000
2153.754883	38725.175781
2152.184570	38748.667969
2150.615234	38543.503906
2149.044922	38485.500000
2147.473633	38809.449219
2145.903320	38933.527344
2144.331055	38338.804688
2142.759766	38389.480469
2141.187500	38837.617188
