#Wave		#Intensity
3550.405273	50598.421875
3549.173828	50001.394531
3547.941406	50365.570313
3546.708984	50802.906250
3545.476563	50380.722656
3544.243164	50481.937500
3543.010742	50477.257813
3541.777344	50476.644531
3540.542969	51080.300781
3539.309570	50851.722656
3538.075195	50417.832031
3536.840820	50817.765625
3535.605469	50928.859375
3534.371094	50483.019531
3533.135742	50378.734375
3531.900391	50697.050781
3530.664063	50286.058594
3529.428711	50484.437500
3528.192383	50627.906250
3526.955078	50521.644531
3525.718750	50636.625000
3524.481445	50230.113281
3523.244141	50405.949219
3522.006836	50435.683594
3520.768555	50548.531250
3519.530273	50977.566406
3518.291992	50757.851563
3517.053711	51433.855469
3515.814453	50715.757813
3514.575195	51199.050781
3513.335938	50720.253906
3512.095703	51065.656250
3510.855469	50540.527344
3509.615234	50414.289063
3508.375000	50941.609375
3507.133789	51187.523438
3505.892578	51174.460938
3504.651367	50985.488281
3503.410156	51077.582031
3502.167969	50844.238281
3500.925781	50859.527344
3499.683594	51014.199219
3498.440430	50853.714844
3497.197266	51054.750000
3495.954102	51288.000000
3494.710938	51069.003906
3493.466797	51197.199219
3492.222656	50683.742188
3490.978516	50868.433594
3489.734375	51248.660156
3488.489258	50981.492188
3487.244141	51137.761719
3485.999023	51622.464844
3484.752930	51319.105469
3483.506836	51034.000000
3482.260742	51107.519531
3481.014648	51309.875000
3479.767578	51604.746094
3478.520508	51146.703125
3477.273438	51365.003906
3476.025391	51325.675781
3474.777344	51392.968750
3473.529297	51494.414063
3472.281250	51577.710938
3471.032227	51486.085938
3469.784180	51511.058594
3468.534180	51618.390625
3467.285156	51635.277344
3466.035156	51340.843750
3464.785156	51524.433594
3463.535156	51123.742188
3462.284180	51564.195313
3461.033203	51506.796875
3459.782227	51230.742188
3458.531250	51666.851563
3457.279297	52008.515625
3456.027344	51534.027344
3454.775391	51711.191406
3453.522461	51808.113281
3452.270508	51636.503906
3451.016602	51476.984375
3449.763672	51205.375000
3448.509766	51440.457031
3447.255859	51461.230469
3446.001953	51612.082031
3444.748047	51480.726563
3443.493164	51597.488281
3442.238281	51558.183594
3440.983398	51708.859375
3439.727539	51971.414063
3438.471680	51492.308594
3437.215820	51592.921875
3435.958984	51237.968750
3434.703125	51566.292969
3433.446289	51986.328125
3432.188477	51727.339844
3430.931641	51115.140625
3429.673828	51439.187500
3428.416016	51635.390625
3427.157227	51618.054688
3425.898438	51652.574219
3424.639648	51565.445313
3423.380859	51601.945313
3422.121094	51738.074219
3420.862305	51567.273438
3419.601563	51575.839844
3418.341797	51341.402344
3417.081055	51630.777344
3415.820313	51286.921875
3414.559570	51528.402344
3413.297852	51751.855469
3412.036133	51676.773438
3410.774414	51454.523438
3409.512695	51498.851563
3408.250000	51396.019531
3406.987305	51028.851563
3405.724609	51417.039063
3404.460938	51030.148438
3403.197266	51169.843750
3401.933594	51349.187500
3400.669922	51216.710938
3399.405273	50915.542969
3398.140625	51414.351563
3396.875977	51492.261719
3395.610352	51516.570313
3394.344727	51513.093750
3393.079102	51055.511719
3391.813477	50982.738281
3390.546875	51437.226563
3389.280273	51094.886719
3388.013672	51293.562500
3386.746094	51119.757813
3385.478516	51175.742188
3384.210938	50825.820313
3382.943359	50860.062500
3381.674805	51220.816406
3380.406250	51072.914063
3379.136719	50648.132813
3377.868164	51335.000000
3376.598633	51015.132813
3375.329102	51472.289063
3374.058594	51371.898438
3372.789063	51113.472656
3371.517578	51198.894531
3370.247070	51339.570313
3368.975586	51237.304688
3367.705078	51016.625000
3366.432617	50912.488281
3365.161133	50682.101563
3363.888672	51029.859375
3362.616211	50706.832031
3361.343750	50959.761719
3360.070313	50924.730469
3358.796875	51059.222656
3357.523438	51101.027344
3356.249023	50752.707031
3354.974609	50940.312500
3353.700195	50730.023438
3352.425781	51642.093750
3351.150391	50886.468750
3349.875000	50867.214844
3348.599609	51086.039063
3347.323242	51070.667969
3346.046875	50949.101563
3344.770508	51091.058594
3343.494141	50829.957031
3342.216797	51184.125000
3340.939453	51168.722656
3339.661133	50968.660156
3338.383789	50876.703125
3337.105469	51214.812500
3335.827148	50651.671875
3334.547852	50789.472656
3333.268555	51037.089844
3331.989258	50929.500000
3330.709961	51035.742188
3329.429688	50851.710938
3328.149414	51053.980469
3326.869141	50948.417969
3325.587891	51217.191406
3324.306641	51027.382813
3323.025391	50914.046875
3321.744141	51029.878906
3320.461914	51298.367188
3319.179688	51071.496094
3317.896484	50962.144531
3316.614258	51257.843750
3315.331055	51304.972656
3314.047852	51275.808594
3312.763672	51307.261719
3311.479492	50912.550781
3310.195313	51608.539063
3308.911133	51358.515625
3307.625977	51553.988281
3306.340820	51468.132813
3305.054688	51655.671875
3303.769531	51415.601563
3302.483398	51710.402344
3301.197266	51630.417969
3299.910156	51404.156250
3298.623047	51419.835938
3297.335938	51443.304688
3296.048828	51380.976563
3294.760742	51390.785156
3293.472656	51268.082031
3292.184570	51451.289063
3290.895508	51581.816406
3289.606445	51241.039063
3288.317383	51301.457031
3287.028320	51470.843750
3285.738281	51498.093750
3284.448242	51599.253906
3283.157227	51653.679688
3281.867188	51941.433594
3280.576172	52192.109375
3279.284180	52085.011719
3277.993164	52397.718750
3276.701172	52117.699219
3275.409180	51763.984375
3274.116211	52086.242188
3272.823242	51930.726563
3271.530273	52198.437500
3270.237305	52378.687500
3268.943359	51934.097656
3267.649414	51846.628906
3266.355469	51883.308594
3265.060547	52034.363281
3263.765625	51929.464844
3262.470703	51921.507813
3261.174805	51991.054688
3259.879883	51725.437500
3258.583008	51835.656250
3257.287109	52131.695313
3255.990234	52026.886719
3254.693359	52069.203125
3253.396484	51799.972656
3252.098633	52029.957031
3250.800781	51849.812500
3249.502930	51890.175781
3248.205078	52346.144531
3246.906250	52318.722656
3245.607422	52436.222656
3244.307617	51910.363281
3243.007813	52348.507813
3241.708008	51911.722656
3240.408203	52164.320313
3239.107422	52324.156250
3237.806641	51704.343750
3236.505859	52236.535156
3235.204102	51802.171875
3233.902344	52293.589844
3232.600586	52339.441406
3231.298828	52286.964844
3229.996094	52003.273438
3228.693359	52355.460938
3227.389648	52164.320313
3226.086914	51965.562500
3224.783203	52015.242188
3223.478516	52095.687500
3222.173828	52330.039063
3220.870117	52085.226563
3219.564453	52267.527344
3218.259766	52109.367188
3216.954102	51991.644531
3215.648438	52189.199219
3214.341797	52382.816406
3213.035156	52053.761719
3211.728516	52180.078125
3210.421875	52043.246094
3209.114258	51856.554688
3207.806641	51873.402344
3206.499023	51750.152344
3205.190430	52440.425781
3203.881836	52056.222656
3202.573242	51940.667969
3201.263672	52208.609375
3199.954102	52033.640625
3198.644531	51933.480469
3197.333984	51959.816406
3196.024414	52016.781250
3194.713867	51828.589844
3193.402344	52144.015625
3192.090820	52009.464844
3190.779297	52083.566406
3189.467773	51644.871094
3188.155273	51833.781250
3186.842773	51963.312500
3185.530273	51882.464844
3184.216797	51746.214844
3182.903320	51858.460938
3181.589844	51598.078125
3180.276367	51821.085938
3178.961914	51868.289063
3177.646484	51714.988281
3176.332031	51708.734375
3175.016602	51660.492188
3173.701172	51440.550781
3172.385742	51562.152344
3171.069336	51485.355469
3169.752930	51810.886719
3168.436523	51204.132813
3167.119141	51621.046875
3165.801758	51511.890625
3164.484375	51189.441406
3163.166016	51626.996094
3161.847656	51536.941406
3160.529297	51386.007813
3159.209961	51415.933594
3157.890625	51236.546875
3156.571289	51346.378906
3155.251953	51395.292969
3153.931641	51216.019531
3152.611328	51645.109375
3151.290039	51150.375000
3149.968750	51529.867188
3148.647461	51641.343750
3147.326172	51931.273438
3146.003906	51427.421875
3144.681641	51538.820313
3143.359375	51405.351563
3142.036133	51163.789063
3140.712891	51163.238281
3139.389648	51145.617188
3138.065430	50925.125000
3136.742188	51320.789063
3135.416992	51162.886719
3134.092773	51550.722656
3132.767578	50794.246094
3131.442383	51164.929688
3130.116211	51009.082031
3128.790039	51337.886719
3127.463867	51055.261719
3126.137695	50867.367188
3124.810547	51044.632813
3123.483398	51393.902344
3122.156250	51183.355469
3120.828125	51173.269531
3119.500000	51567.601563
3118.170898	51364.703125
3116.842773	51532.125000
3115.513672	51487.949219
3114.183594	51066.179688
3112.854492	51042.886719
3111.524414	51357.402344
3110.194336	51211.406250
3108.863281	51397.457031
3107.532227	51822.914063
3106.201172	51218.742188
3104.869141	51340.554688
3103.537109	51368.078125
3102.205078	51493.558594
3100.873047	51313.824219
3099.540039	51663.339844
3098.207031	51246.414063
3096.873047	51612.714844
3095.539063	51540.363281
3094.205078	51302.476563
3092.871094	51356.246094
3091.536133	51477.687500
3090.201172	51409.171875
3088.866211	51504.214844
3087.530273	51681.894531
3086.194336	51913.964844
3084.857422	51693.250000
3083.521484	51380.613281
3082.184570	51785.300781
3080.846680	51341.390625
3079.509766	51760.894531
3078.171875	52092.023438
3076.833008	51668.968750
3075.495117	51789.921875
3074.156250	51577.105469
3072.817383	52046.640625
3071.477539	52011.871094
3070.137695	51967.742188
3068.797852	51590.234375
3067.457031	51785.906250
3066.116211	52015.179688
3064.775391	51787.644531
3063.434570	51917.621094
3062.092773	51910.960938
3060.750977	51921.132813
3059.408203	51564.789063
3058.065430	51732.062500
3056.722656	51574.039063
3055.378906	51900.050781
3054.036133	52218.425781
3052.691406	51937.113281
3051.347656	51977.101563
3050.002930	51977.855469
3048.658203	51924.484375
3047.313477	52035.332031
3045.967773	52099.484375
3044.622070	52003.207031
3043.275391	51992.738281
3041.929688	51944.988281
3040.582031	52253.226563
3039.235352	51812.273438
3037.887695	51399.468750
3036.540039	51528.808594
3035.192383	51801.453125
3033.843750	51316.328125
3032.495117	51858.738281
3031.146484	52127.375000
3029.796875	52198.695313
3028.447266	51946.378906
3027.097656	51973.078125
3025.747070	52219.097656
3024.396484	51736.500000
3023.044922	51694.464844
3021.694336	51585.574219
3020.342773	51365.300781
3018.990234	51677.988281
3017.638672	51745.500000
3016.286133	51634.820313
3014.932617	51219.917969
3013.580078	51530.464844
3012.226563	51503.347656
3010.872070	51676.472656
3009.518555	51777.218750
3008.164063	51572.148438
3006.808594	51356.054688
3005.454102	51616.082031
3004.098633	51200.074219
3002.743164	51049.003906
3001.386719	51442.167969
3000.030273	51422.480469
2998.673828	51524.902344
2997.316406	51305.441406
2995.958984	51246.957031
2994.601563	51269.835938
2993.243164	51104.175781
2991.884766	50995.875000
2990.526367	50846.972656
2989.166992	51242.984375
2987.807617	51044.230469
2986.448242	50814.183594
2985.087891	51051.179688
2983.727539	51206.867188
2982.367188	51047.031250
2981.005859	51217.390625
2979.644531	51168.246094
2978.283203	50872.105469
2976.921875	51158.472656
2975.559570	51125.945313
2974.196289	51535.523438
2972.833984	51206.406250
2971.470703	51497.921875
2970.106445	51275.722656
2968.743164	51007.621094
2967.378906	50899.707031
2966.013672	50962.906250
2964.649414	50851.367188
2963.284180	51151.707031
2961.917969	50801.214844
2960.552734	51171.242188
2959.186523	51120.367188
2957.819336	50786.644531
2956.453125	50945.214844
2955.085938	50964.179688
2953.717773	51115.277344
2952.350586	51249.785156
2950.982422	51195.261719
2949.613281	51553.433594
2948.245117	51451.175781
2946.875977	51504.789063
2945.505859	50997.535156
2944.136719	51382.875000
2942.766602	51394.312500
2941.395508	51288.527344
2940.025391	51570.964844
2938.654297	51964.925781
2937.282227	51827.949219
2935.910156	51566.613281
2934.538086	51237.714844
2933.166016	51759.375000
2931.792969	51781.625000
2930.419922	51568.058594
2929.046875	51756.636719
2927.672852	51808.089844
2926.298828	51556.292969
2924.923828	52214.050781
2923.549805	51604.421875
2922.173828	51898.605469
2920.798828	52150.667969
2919.422852	51880.824219
2918.046875	51968.601563
2916.670898	51673.386719
2915.293945	51848.667969
2913.916992	51763.222656
2912.539063	51962.074219
2911.161133	52153.539063
2909.783203	51902.324219
2908.404297	51942.566406
2907.026367	52130.238281
2905.646484	51338.652344
2904.267578	51817.500000
2902.887695	52305.207031
2901.507813	51786.937500
2900.126953	52334.406250
2898.746094	51780.015625
2897.365234	52069.140625
2895.983398	52319.968750
2894.601563	52468.945313
2893.219727	52514.328125
2891.836914	52714.011719
2890.454102	52036.871094
2889.071289	52468.847656
2887.687500	52450.664063
2886.303711	52510.480469
2884.919922	52573.890625
2883.535156	52575.621094
2882.150391	52261.972656
2880.765625	52176.789063
2879.379883	52299.976563
2877.994141	52261.906250
2876.608398	52419.410156
2875.221680	52636.570313
2873.834961	51937.824219
2872.447266	52098.894531
2871.059570	51753.363281
2869.671875	51923.429688
2868.284180	51824.000000
2866.895508	52104.222656
2865.506836	51914.425781
2864.117188	52024.640625
2862.727539	51816.882813
2861.337891	51862.046875
2859.947266	51412.480469
2858.556641	51576.843750
2857.166016	51533.589844
2855.775391	51640.097656
2854.383789	51706.863281
2852.991211	51277.695313
2851.599609	51418.425781
2850.207031	51447.332031
2848.813477	51723.085938
2847.419922	51485.269531
2846.026367	51539.335938
2844.632813	51164.824219
2843.238281	50984.910156
2841.843750	51238.816406
2840.449219	51220.898438
2839.053711	50900.769531
2837.658203	50789.414063
2836.261719	50625.964844
2834.865234	50778.960938
2833.468750	50315.464844
2832.072266	50457.671875
2830.674805	50359.105469
2829.276367	50781.363281
2827.878906	50510.402344
2826.480469	50219.824219
2825.082031	50526.945313
2823.682617	50301.082031
2822.283203	50168.589844
2820.882813	50098.917969
2819.483398	49575.714844
2818.083008	49961.449219
2816.681641	50295.027344
2815.281250	49849.179688
2813.878906	50012.468750
2812.477539	50173.882813
2811.075195	50029.109375
2809.672852	50161.792969
2808.269531	49879.316406
2806.866211	50101.402344
2805.462891	50203.554688
2804.059570	50641.773438
2802.655273	50168.175781
2801.250000	49812.750000
2799.845703	49886.265625
2798.440430	49811.496094
2797.034180	49792.113281
2795.628906	50042.304688
2794.222656	50194.203125
2792.815430	49880.304688
2791.408203	50083.890625
2790.000977	50094.757813
2788.593750	49745.437500
2787.185547	49982.761719
2785.777344	49667.492188
2784.368164	49471.746094
2782.958984	50138.242188
2781.549805	50097.402344
2780.140625	49828.683594
2778.730469	49866.246094
2777.319336	49992.765625
2775.909180	49984.007813
2774.497070	49888.089844
2773.085938	49939.808594
2771.673828	50179.941406
2770.261719	50391.515625
2768.849609	49993.496094
2767.436523	50077.093750
2766.023438	50190.839844
2764.609375	50311.621094
2763.195313	49658.371094
2761.781250	49867.953125
2760.367188	49736.765625
2758.952148	49632.242188
2757.536133	50370.136719
2756.121094	50019.058594
2754.705078	49590.156250
2753.288086	50035.101563
2751.871094	50288.484375
2750.454102	50341.589844
2749.037109	49484.480469
2747.619141	50056.457031
2746.201172	49960.890625
2744.782227	49729.117188
2743.363281	49879.566406
2741.944336	50051.156250
2740.524414	50227.960938
2739.104492	50288.003906
2737.684570	50104.128906
2736.263672	50026.351563
2734.842773	50079.316406
2733.421875	50374.191406
2732.000000	50132.191406
2730.578125	50204.496094
2729.155273	50384.398438
2727.733398	50195.488281
2726.309570	50359.421875
2724.886719	50041.878906
2723.462891	50270.984375
2722.038086	50216.218750
2720.614258	49868.972656
2719.189453	50284.667969
2717.763672	49937.570313
2716.338867	50092.441406
2714.912109	50528.878906
2713.486328	50178.445313
2712.059570	49710.296875
2710.632813	50062.054688
2709.205078	50425.945313
2707.777344	50040.703125
2706.349609	49933.351563
2704.920898	49966.628906
2703.492188	49827.722656
2702.063477	49794.257813
2700.633789	49904.789063
2699.204102	49999.460938
2697.774414	49493.859375
2696.343750	49732.453125
2694.912109	49932.332031
2693.481445	49530.578125
2692.049805	49832.089844
2690.618164	49632.128906
2689.185547	49421.746094
2687.752930	49432.214844
2686.319336	49770.210938
2684.886719	50071.261719
2683.453125	49939.742188
2682.018555	49652.511719
2680.583984	49521.148438
2679.149414	49834.187500
2677.713867	49590.902344
2676.278320	49977.195313
2674.842773	50032.906250
2673.406250	49728.570313
2671.969727	49450.593750
2670.533203	49681.054688
2669.095703	49787.402344
2667.658203	49827.355469
2666.219727	49759.062500
2664.781250	49565.156250
2663.342773	49805.742188
2661.903320	49678.191406
2660.463867	49442.585938
2659.024414	49416.289063
2657.583984	49393.484375
2656.143555	49159.855469
2654.703125	49161.503906
2653.261719	49009.890625
2651.820313	49843.804688
2650.377930	49554.578125
2648.935547	49331.617188
2647.493164	49434.101563
2646.049805	49334.765625
2644.606445	49106.796875
2643.162109	49621.265625
2641.718750	49518.464844
2640.273438	49349.683594
2638.829102	49219.199219
2637.383789	49262.449219
2635.938477	49458.468750
2634.492188	49404.417969
2633.045898	49596.820313
2631.598633	49223.511719
2630.152344	49389.835938
2628.705078	49413.871094
2627.256836	49184.773438
2625.808594	49508.691406
2624.360352	49432.160156
2622.911133	49482.128906
2621.461914	49222.046875
2620.012695	49330.902344
2618.562500	49178.304688
2617.112305	49546.707031
2615.661133	49482.363281
2614.210938	49264.097656
2612.758789	49339.925781
2611.307617	49426.082031
2609.855469	49757.632813
2608.402344	49318.308594
2606.950195	49981.414063
2605.496094	49350.523438
2604.042969	49369.203125
2602.588867	49998.980469
2601.134766	49496.261719
2599.679688	49295.746094
2598.224609	49373.050781
2596.769531	49441.687500
2595.313477	49303.386719
2593.857422	49589.183594
2592.401367	49226.882813
2590.944336	49300.636719
2589.486328	49258.945313
2588.029297	49236.214844
2586.571289	49447.617188
2585.112305	48849.992188
2583.654297	48873.824219
2582.195313	49289.851563
2580.735352	48792.449219
2579.275391	49376.777344
2577.815430	48843.496094
2576.354492	49501.402344
2574.893555	48959.757813
2573.432617	48564.382813
2571.970703	48996.894531
2570.508789	48716.722656
2569.045898	48661.527344
2567.583984	48620.082031
2566.120117	48278.445313
2564.657227	48648.714844
2563.193359	48953.640625
2561.728516	48913.855469
2560.263672	48772.976563
2558.798828	48488.250000
2557.333984	48566.785156
2555.868164	48724.050781
2554.402344	48550.816406
2552.935547	48442.703125
2551.468750	48524.578125
2550.000977	48385.722656
2548.534180	48390.597656
2547.065430	48631.421875
2545.597656	48282.371094
2544.128906	48297.507813
2542.659180	48425.394531
2541.190430	48167.179688
2539.720703	48383.824219
2538.250000	47838.921875
2536.779297	48461.753906
2535.308594	48248.136719
2533.836914	47874.261719
2532.365234	48056.574219
2530.893555	48097.265625
2529.420898	48054.402344
2527.948242	47984.289063
2526.475586	47977.250000
2525.001953	48433.523438
2523.527344	48373.570313
2522.053711	47935.687500
2520.579102	47761.839844
2519.103516	48299.367188
2517.627930	47967.296875
2516.152344	48019.765625
2514.675781	47937.875000
2513.199219	47611.234375
2511.722656	47995.136719
2510.245117	47952.378906
2508.767578	47794.132813
2507.290039	47724.265625
2505.811523	47866.652344
2504.333008	47805.281250
2502.853516	47776.175781
2501.374023	47328.054688
2499.893555	47485.640625
2498.414063	47995.828125
2496.932617	47824.292969
2495.452148	47866.378906
2493.970703	47572.960938
2492.488281	47547.320313
2491.006836	47489.515625
2489.524414	47817.742188
2488.041016	47538.160156
2486.557617	47966.035156
2485.074219	47764.367188
2483.589844	47549.265625
2482.105469	47374.847656
2480.621094	47675.527344
2479.135742	47528.199219
2477.650391	47848.953125
2476.164063	47605.363281
2474.677734	47694.574219
2473.191406	47592.953125
2471.704102	47758.062500
2470.216797	47393.230469
2468.728516	47696.632813
2467.240234	48101.070313
2465.751953	47989.335938
2464.262695	47479.824219
2462.773438	47894.105469
2461.283203	47937.503906
2459.793945	47558.082031
2458.302734	47389.347656
2456.812500	47538.890625
2455.321289	47765.777344
2453.829102	47632.445313
2452.336914	47733.011719
2450.844727	47493.785156
2449.351563	47542.203125
2447.858398	47525.031250
2446.365234	47501.140625
2444.871094	47378.132813
2443.376953	47273.656250
2441.882813	47060.078125
2440.387695	47202.519531
2438.891602	47212.289063
2437.395508	47544.222656
2435.899414	47179.792969
2434.403320	47280.109375
2432.906250	47278.093750
2431.409180	47282.777344
2429.911133	47193.609375
2428.413086	47149.714844
2426.914063	47358.765625
2425.416016	47102.171875
2423.916016	47227.410156
2422.416992	47079.765625
2420.916992	46840.160156
2419.416016	47022.234375
2417.915039	47048.675781
2416.414063	46954.710938
2414.912109	46919.296875
2413.410156	46903.949219
2411.908203	46658.046875
2410.405273	47113.785156
2408.902344	46435.453125
2407.398438	46628.906250
2405.894531	46348.257813
2404.390625	46289.671875
2402.885742	46945.078125
2401.380859	47009.769531
2399.875977	46435.847656
2398.370117	46859.007813
2396.863281	46563.707031
2395.356445	46261.886719
2393.849609	46693.078125
2392.342773	46526.250000
2390.834961	46789.003906
2389.327148	46632.214844
2387.818359	46492.140625
2386.309570	46486.871094
2384.799805	46433.375000
2383.290039	46724.054688
2381.780273	46399.582031
2380.269531	46287.972656
2378.758789	46304.339844
2377.248047	46520.000000
2375.736328	46373.562500
2374.223633	46356.675781
2372.711914	46618.613281
2371.199219	46266.511719
2369.685547	46332.593750
2368.171875	46174.761719
2366.658203	46283.929688
2365.143555	46510.718750
2363.628906	46354.605469
2362.114258	45875.523438
2360.598633	45827.296875
2359.083008	45843.667969
2357.566406	46038.804688
2356.049805	45952.500000
2354.532227	46034.992188
2353.014648	45867.671875
2351.497070	45627.675781
2349.978516	46001.144531
2348.459961	45693.457031
2346.941406	46081.582031
2345.421875	45949.132813
2343.902344	45521.125000
2342.381836	45748.820313
2340.861328	45983.000000
2339.340820	45829.242188
2337.819336	45507.277344
2336.296875	45629.164063
2334.775391	46102.214844
2333.252930	45768.875000
2331.729492	45819.714844
2330.206055	45954.558594
2328.682617	45680.804688
2327.158203	45440.121094
2325.633789	45431.707031
2324.109375	45589.539063
2322.583984	45589.308594
2321.057617	45329.140625
2319.532227	45590.480469
2318.005859	45639.566406
2316.478516	45287.515625
2314.951172	45275.835938
2313.423828	45785.003906
2311.895508	45429.890625
2310.367188	45089.730469
2308.838867	45089.593750
2307.309570	45562.156250
2305.779297	45450.304688
2304.250000	45276.164063
2302.718750	45249.718750
2301.188477	45119.984375
2299.657227	44862.449219
2298.125000	45376.925781
2296.593750	45152.218750
2295.061523	45142.195313
2293.528320	44861.980469
2291.995117	44922.425781
2290.461914	44840.445313
2288.927734	44377.250000
2287.393555	44851.628906
2285.858398	44653.601563
2284.323242	44594.644531
2282.788086	44478.503906
2281.251953	45213.816406
2279.715820	44819.835938
2278.178711	44417.886719
2276.641602	44612.144531
2275.103516	44646.316406
2273.566406	44576.015625
2272.027344	44404.585938
2270.489258	44644.304688
2268.950195	44375.089844
2267.410156	44373.390625
2265.870117	44234.773438
2264.330078	44484.046875
2262.789063	44467.644531
2261.248047	44280.238281
2259.706055	44390.890625
2258.165039	44394.046875
2256.622070	44029.406250
2255.079102	44214.867188
2253.536133	44301.011719
2251.993164	44230.996094
2250.449219	44239.046875
2248.904297	43767.625000
2247.359375	44052.011719
2245.814453	44051.968750
2244.269531	43993.453125
2242.723633	43738.507813
2241.176758	43980.390625
2239.629883	44128.019531
2238.083008	43796.972656
2236.535156	43994.847656
2234.987305	43871.554688
2233.439453	44169.804688
2231.890625	44356.066406
2230.340820	43918.437500
2228.791992	44187.273438
2227.242188	44086.738281
2225.691406	44033.207031
2224.140625	44080.046875
2222.589844	44147.894531
2221.038086	43796.714844
2219.486328	43774.023438
2217.933594	43989.023438
2216.380859	44181.277344
2214.828125	44258.687500
2213.274414	44077.550781
2211.719727	44172.707031
2210.166016	43872.183594
2208.611328	43754.238281
2207.055664	44196.390625
2205.500000	43894.472656
2203.944336	43916.941406
2202.387695	44028.093750
2200.831055	43726.441406
2199.273438	43687.671875
2197.715820	43871.300781
2196.158203	43800.285156
2194.599609	43735.746094
2193.041016	43698.613281
2191.481445	44091.296875
2189.921875	44192.484375
2188.362305	43772.320313
2186.801758	43556.652344
2185.240234	43858.898438
2183.679688	44056.484375
2182.117188	43635.171875
2180.555664	43914.652344
2178.993164	43644.589844
2177.430664	43923.914063
2175.867188	43673.250000
2174.302734	43947.597656
2172.739258	43889.617188
2171.174805	44022.574219
2169.609375	44043.191406
2168.043945	44155.187500
2166.478516	44058.722656
2164.912109	43861.339844
2163.345703	43673.667969
2161.779297	44160.453125
2160.211914	43684.539063
2158.643555	43756.406250
2157.075195	43442.496094
2155.506836	43451.972656
2153.937500	43790.988281
2152.368164	43634.035156
2150.798828	43793.742188
2149.228516	43873.433594
2147.657227	43722.960938
2146.086914	43631.675781
2144.515625	43602.726563
2142.943359	44048.042969
2141.371094	43477.812500
