#Wave		#Intensity
3550.240234	12347.678711
3549.007813	12227.461914
3547.776367	12133.181641
3546.543945	12271.125000
3545.311523	12237.960938
3544.078125	12514.255859
3542.844727	12206.272461
3541.611328	11996.098633
3540.377930	12308.885742
3539.143555	12346.934570
3537.909180	12293.452148
3536.674805	12140.363281
3535.440430	12257.699219
3534.205078	12122.971680
3532.969727	12242.290039
3531.734375	12337.177734
3530.499023	12153.770508
3529.262695	12238.481445
3528.026367	12243.977539
3526.790039	12273.827148
3525.552734	12263.075195
3524.315430	12193.490234
3523.078125	12369.374023
3521.840820	12494.481445
3520.602539	12455.300781
3519.364258	12474.921875
3518.125977	12391.171875
3516.886719	12339.876953
3515.648438	12432.435547
3514.409180	12381.151367
3513.168945	12506.057617
3511.929688	12450.726563
3510.689453	12427.804688
3509.449219	12342.157227
3508.208984	12566.095703
3506.967773	12310.541016
3505.726563	12554.609375
3504.485352	12527.638672
3503.243164	12496.634766
3502.001953	12405.011719
3500.758789	12446.786133
3499.516602	12454.198242
3498.274414	12510.079102
3497.031250	12432.661133
3495.788086	12427.955078
3494.543945	12463.616211
3493.300781	12573.925781
3492.056641	12472.345703
3490.811523	12445.441406
3489.567383	12531.478516
3488.322266	12637.639648
3487.077148	12580.475586
3485.832031	12753.083984
3484.585938	12488.380859
3483.339844	12487.687500
3482.093750	12640.058594
3480.847656	12591.002930
3479.600586	12654.704102
3478.353516	12525.154297
3477.106445	12548.593750
3475.858398	12654.506836
3474.610352	12587.391602
3473.362305	12628.896484
3472.114258	12710.591797
3470.865234	12639.483398
3469.616211	12711.090820
3468.367188	12591.789063
3467.117188	12745.732422
3465.868164	12724.881836
3464.617188	12653.839844
3463.367188	12725.358398
3462.117188	12758.710938
3460.866211	12631.520508
3459.614258	12803.300781
3458.363281	12866.695313
3457.111328	12829.797852
3455.859375	12911.200195
3454.607422	12790.120117
3453.354492	12903.556641
3452.102539	12932.792969
3450.848633	12775.727539
3449.595703	12702.841797
3448.341797	12938.327148
3447.087891	12845.416016
3445.833984	12798.575195
3444.580078	12943.840820
3443.325195	12644.937500
3442.070313	12994.171875
3440.814453	12781.368164
3439.559570	12872.526367
3438.303711	12805.746094
3437.046875	12870.878906
3435.791016	12919.999023
3434.534180	12833.273438
3433.277344	12916.325195
3432.020508	12735.798828
3430.762695	12940.594727
3429.504883	12716.235352
3428.247070	12900.989258
3426.988281	12880.200195
3425.730469	12821.527344
3424.471680	12820.701172
3423.211914	12738.142578
3421.953125	12884.814453
3420.693359	13005.517578
3419.432617	12859.219727
3418.172852	13051.573242
3416.912109	13000.907227
3415.651367	12777.061523
3414.390625	12786.186523
3413.128906	12783.366211
3411.867188	12893.948242
3410.605469	12885.135742
3409.343750	12945.927734
3408.081055	12819.801758
3406.818359	12795.105469
3405.554688	12965.173828
3404.291992	12906.676758
3403.028320	13056.778320
3401.764648	12948.633789
3400.500000	13017.250000
3399.236328	12768.216797
3397.971680	12914.241211
3396.706055	12792.328125
3395.441406	12753.788086
3394.175781	12762.863281
3392.909180	12960.309570
3391.643555	12907.875000
3390.376953	12825.732422
3389.110352	13017.083984
3387.843750	12980.517578
3386.576172	12829.083984
3385.308594	12786.630859
3384.041016	12779.833008
3382.773438	12749.283203
3381.504883	12892.893555
3380.236328	13018.632813
3378.966797	12804.084961
3377.698242	12828.925781
3376.428711	12944.704102
3375.158203	12809.381836
3373.888672	12867.797852
3372.618164	12888.644531
3371.347656	12897.626953
3370.077148	12902.655273
3368.805664	12795.128906
3367.534180	12821.889648
3366.262695	12929.557617
3364.990234	12820.121094
3363.717773	13055.969727
3362.445313	12881.462891
3361.172852	12817.458984
3359.899414	12850.084961
3358.625977	12906.346680
3357.352539	12836.463867
3356.078125	12926.194336
3354.803711	13191.186523
3353.529297	12861.338867
3352.254883	12866.338867
3350.979492	12778.820313
3349.704102	12923.558594
3348.428711	12855.738281
3347.152344	12974.819336
3345.875977	12832.284180
3344.599609	12829.410156
3343.322266	12836.365234
3342.044922	12927.823242
3340.767578	13097.834961
3339.490234	13120.435547
3338.211914	12891.634766
3336.933594	12949.613281
3335.655273	13046.826172
3334.375977	13145.956055
3333.097656	13039.006836
3331.817383	13124.359375
3330.538086	12909.585938
3329.257813	12940.020508
3327.977539	12978.282227
3326.697266	13081.206055
3325.416016	12976.365234
3324.134766	12951.896484
3322.853516	12935.271484
3321.572266	13173.226563
3320.290039	12974.478516
3319.007813	13096.829102
3317.724609	13037.127930
3316.442383	13165.276367
3315.159180	13215.123047
3313.875000	13196.499023
3312.591797	13031.243164
3311.307617	12983.345703
3310.023438	13031.227539
3308.738281	13239.302734
3307.454102	13132.784180
3306.167969	13186.455078
3304.882813	13212.764648
3303.596680	13073.133789
3302.310547	13179.471680
3301.024414	13147.224609
3299.738281	13138.399414
3298.451172	13211.491211
3297.164063	13021.313477
3295.875977	13072.951172
3294.587891	13338.954102
3293.299805	13353.471680
3292.011719	13313.433594
3290.722656	13205.243164
3289.433594	13293.771484
3288.144531	13212.886719
3286.855469	13209.890625
3285.565430	13463.755859
3284.275391	13271.991211
3282.984375	13255.365234
3281.694336	13355.419922
3280.402344	13420.433594
3279.111328	13326.032227
3277.819336	13241.388672
3276.528320	13463.747070
3275.235352	13441.263672
3273.943359	13463.454102
3272.650391	13439.036133
3271.357422	13321.458008
3270.063477	13297.081055
3268.770508	13466.730469
3267.476563	13339.522461
3266.181641	13493.568359
3264.887695	13191.913086
3263.592773	13229.615234
3262.296875	13364.196289
3261.001953	13444.463867
3259.706055	13462.707031
3258.410156	13440.271484
3257.113281	13392.672852
3255.816406	13407.040039
3254.519531	13547.193359
3253.222656	13333.200195
3251.924805	13291.467773
3250.626953	13228.478516
3249.329102	13521.289063
3248.030273	13576.193359
3246.732422	13573.089844
3245.432617	13602.834961
3244.133789	13510.863281
3242.833984	13602.408203
3241.534180	13612.812500
3240.234375	13735.176758
3238.933594	13654.832031
3237.632813	13682.579102
3236.331055	13525.115234
3235.030273	13577.949219
3233.728516	13503.492188
3232.426758	13573.654297
3231.124023	13503.084961
3229.821289	13640.653320
3228.518555	13466.068359
3227.215820	13626.691406
3225.912109	13727.546875
3224.608398	13470.275391
3223.303711	13555.719727
3222.000000	13648.819336
3220.695313	13553.340820
3219.389648	13659.859375
3218.084961	13664.411133
3216.779297	13713.177734
3215.473633	13781.140625
3214.166992	13551.220703
3212.860352	13463.571289
3211.553711	13531.540039
3210.246094	13747.337891
3208.939453	13723.054688
3207.631836	13693.022461
3206.323242	13716.733398
3205.015625	13805.662109
3203.707031	13769.873047
3202.397461	13655.475586
3201.088867	13759.689453
3199.779297	13492.004883
3198.468750	13701.602539
3197.159180	13424.471680
3195.848633	13465.427734
3194.538086	13642.327148
3193.226563	13625.775391
3191.916016	13639.854492
3190.603516	13581.208008
3189.291992	13532.151367
3187.979492	13693.522461
3186.666992	13753.462891
3185.354492	13633.657227
3184.041016	13596.096680
3182.727539	13531.798828
3181.414063	13486.634766
3180.099609	13628.681641
3178.785156	13575.875000
3177.470703	13748.379883
3176.156250	13672.660156
3174.840820	13780.176758
3173.525391	13683.495117
3172.208984	13802.400391
3170.893555	13518.867188
3169.576172	13898.954102
3168.259766	13567.874023
3166.942383	13452.290039
3165.625000	13767.343750
3164.307617	13747.003906
3162.989258	13646.689453
3161.670898	13605.440430
3160.352539	13686.033203
3159.033203	13639.082031
3157.714844	13692.989258
3156.394531	13394.971680
3155.075195	13561.109375
3153.754883	13464.791992
3152.434570	13564.303711
3151.113281	13737.882813
3149.791992	13561.790039
3148.470703	13803.667969
3147.149414	13781.461914
3145.827148	13548.519531
3144.504883	13661.150391
3143.182617	13637.091797
3141.859375	13607.350586
3140.536133	13752.131836
3139.212891	13589.625977
3137.888672	13656.606445
3136.564453	13613.613281
3135.240234	13481.571289
3133.915039	13468.950195
3132.589844	13543.466797
3131.264648	13693.697266
3129.939453	13580.686523
3128.613281	13653.227539
3127.287109	13657.606445
3125.959961	13750.904297
3124.632813	13645.545898
3123.305664	13682.066406
3121.978516	13735.585938
3120.650391	13834.442383
3119.322266	13755.613281
3117.993164	13652.258789
3116.665039	13786.950195
3115.335938	13655.307617
3114.005859	13633.228516
3112.676758	13839.551758
3111.346680	13849.517578
3110.015625	13736.843750
3108.685547	13716.646484
3107.354492	13851.091797
3106.022461	13889.319336
3104.691406	13797.469727
3103.359375	13818.729492
3102.027344	13628.967773
3100.694336	13772.686523
3099.361328	13833.477539
3098.028320	13860.350586
3096.695313	13634.988281
3095.361328	13994.971680
3094.027344	13844.935547
3092.692383	13642.302734
3091.357422	13753.802734
3090.022461	13786.288086
3088.687500	13831.913086
3087.351563	13839.932617
3086.015625	13731.466797
3084.678711	13940.477539
3083.342773	13999.162109
3082.005859	14072.836914
3080.667969	13786.103516
3079.331055	13839.148438
3077.993164	14074.145508
3076.654297	14072.702148
3075.315430	13939.996094
3073.976563	14024.820313
3072.637695	13867.819336
3071.298828	14040.687500
3069.958984	14016.765625
3068.618164	14060.280273
3067.278320	14154.331055
3065.937500	14137.882813
3064.595703	14128.927734
3063.254883	14157.398438
3061.913086	14193.337891
3060.571289	13995.470703
3059.228516	13952.893555
3057.885742	13861.730469
3056.542969	13948.162109
3055.200195	14085.000977
3053.856445	13885.517578
3052.511719	14141.833984
3051.167969	14015.249023
3049.823242	14019.396484
3048.478516	14073.931641
3047.132813	14117.243164
3045.788086	13938.546875
3044.441406	14028.492188
3043.095703	14109.070313
3041.749023	14204.522461
3040.402344	14048.332031
3039.055664	14197.783203
3037.708008	14091.960938
3036.360352	14043.918945
3035.011719	14169.055664
3033.663086	14385.342773
3032.314453	14234.906250
3030.965820	14164.542969
3029.616211	14185.359375
3028.266602	14038.791016
3026.916992	14020.580078
3025.566406	14210.561523
3024.215820	14021.345703
3022.865234	14071.889648
3021.513672	14127.980469
3020.162109	14029.909180
3018.809570	14136.108398
3017.458008	14069.633789
3016.105469	14173.914063
3014.751953	13972.024414
3013.399414	13957.566406
3012.045898	14137.824219
3010.691406	14204.904297
3009.336914	14045.823242
3007.982422	14264.840820
3006.627930	14204.007813
3005.272461	14159.871094
3003.916992	14026.871094
3002.561523	14199.396484
3001.205078	14262.637695
2999.848633	14261.082031
2998.492188	14133.728516
2997.134766	14254.270508
2995.777344	14178.750977
2994.419922	14193.849609
2993.061523	14208.938477
2991.703125	14201.846680
2990.344727	14030.344727
2988.985352	14394.516602
2987.625977	14311.676758
2986.266602	14201.184570
2984.906250	14242.079102
2983.545898	14308.784180
2982.185547	14187.299805
2980.824219	14311.154297
2979.462891	14197.099609
2978.101563	14049.917969
2976.739258	14396.701172
2975.376953	14201.635742
2974.014648	14384.274414
2972.651367	14318.211914
2971.288086	14158.282227
2969.924805	14403.378906
2968.560547	14311.590820
2967.196289	14333.914063
2965.832031	14317.597656
2964.466797	14104.523438
2963.101563	14240.861328
2961.736328	14185.976563
2960.370117	14314.875000
2959.003906	14511.685547
2957.637695	14339.220703
2956.270508	14385.353516
2954.903320	14389.238281
2953.535156	14462.864258
2952.167969	14398.833008
2950.799805	14520.115234
2949.430664	14694.525391
2948.062500	14700.157227
2946.692383	14482.136719
2945.323242	14559.290039
2943.953125	14706.033203
2942.583008	14634.711914
2941.212891	14665.983398
2939.841797	14726.533203
2938.470703	14785.222656
2937.099609	14939.045898
2935.727539	14904.339844
2934.355469	14790.993164
2932.982422	14791.083008
2931.609375	14813.111328
2930.236328	14933.833008
2928.863281	15085.561523
2927.489258	14809.696289
2926.115234	14870.050781
2924.740234	14946.808594
2923.366211	14813.575195
2921.990234	15032.675781
2920.615234	14780.871094
2919.239258	14866.691406
2917.863281	14970.708984
2916.486328	15096.556641
2915.109375	14812.158203
2913.732422	14906.995117
2912.355469	14912.500000
2910.977539	14752.223633
2909.599609	14796.006836
2908.220703	14765.112305
2906.841797	14987.265625
2905.462891	14677.884766
2904.083008	14896.309570
2902.703125	15045.502930
2901.323242	14741.783203
2899.942383	14812.756836
2898.561523	14932.772461
2897.180664	15121.786133
2895.798828	15020.008789
2894.416992	15067.225586
2893.035156	15047.225586
2891.652344	15094.410156
2890.269531	14898.345703
2888.886719	14920.134766
2887.502930	15074.349609
2886.119141	14990.882813
2884.735352	15085.162109
2883.350586	15264.600586
2881.965820	15061.521484
2880.581055	14974.507813
2879.195313	14979.925781
2877.809570	14820.526367
2876.422852	14889.350586
2875.036133	14663.068359
2873.649414	14925.543945
2872.262695	15106.468750
2870.875000	14956.268555
2869.487305	14981.564453
2868.098633	15079.167969
2866.709961	14972.462891
2865.321289	14847.736328
2863.931641	15013.952148
2862.541992	15172.860352
2861.152344	14901.897461
2859.761719	14836.881836
2858.371094	14779.115234
2856.980469	15040.778320
2855.588867	14896.391602
2854.197266	14887.347656
2852.805664	14865.683594
2851.413086	14887.294922
2850.020508	14784.533203
2848.627930	14872.821289
2847.234375	14813.345703
2845.840820	14793.518555
2844.447266	14986.168945
2843.052734	14615.280273
2841.658203	14707.093750
2840.262695	14618.934570
2838.867188	14604.569336
2837.471680	14586.611328
2836.075195	14584.842773
2834.679688	14502.186523
2833.282227	14599.274414
2831.885742	14441.194336
2830.488281	14637.036133
2829.089844	14559.829102
2827.692383	14337.239258
2826.293945	14491.676758
2824.894531	14393.023438
2823.496094	14464.845703
2822.096680	14342.928711
2820.696289	14473.897461
2819.296875	14563.569336
2817.895508	14502.648438
2816.495117	14353.958984
2815.093750	14260.873047
2813.692383	14250.211914
2812.290039	14074.833008
2810.888672	14296.922852
2809.485352	14402.580078
2808.083008	14343.582031
2806.679688	14520.720703
2805.276367	14506.426758
2803.872070	14397.382813
2802.467773	14431.381836
2801.063477	14418.902344
2799.658203	14486.821289
2798.252930	14247.500000
2796.847656	14370.778320
2795.441406	14215.503906
2794.035156	14288.753906
2792.627930	14390.515625
2791.220703	14483.305664
2789.813477	14376.303711
2788.406250	14424.473633
2786.998047	14308.623047
2785.589844	14442.325195
2784.180664	14485.093750
2782.771484	14376.433594
2781.362305	14312.346680
2779.952148	14673.796875
2778.541992	14474.389648
2777.131836	14469.043945
2775.720703	14486.827148
2774.309570	14561.516602
2772.897461	14403.225586
2771.486328	14536.560547
2770.074219	14364.131836
2768.661133	14561.375000
2767.248047	14401.458008
2765.834961	14401.456055
2764.420898	14374.820313
2763.006836	14403.224609
2761.592773	14406.767578
2760.177734	14529.181641
2758.762695	14385.463867
2757.347656	14715.301758
2755.931641	14596.426758
2754.515625	14513.059570
2753.099609	14605.163086
2751.682617	14498.800781
2750.265625	14523.555664
2748.847656	14723.598633
2747.430664	14681.010742
2746.011719	14638.443359
2744.593750	14666.671875
2743.174805	14811.636719
2741.754883	14708.933594
2740.335938	14565.613281
2738.916016	14546.098633
2737.495117	14694.479492
2736.075195	14683.773438
2734.653320	14533.529297
2733.232422	14685.330078
2731.810547	14821.164063
2730.388672	14653.342773
2728.965820	14727.354492
2727.542969	14792.505859
2726.120117	14799.420898
2724.697266	14748.142578
2723.273438	14709.228516
2721.848633	14709.104492
2720.423828	14740.695313
2718.999023	14770.506836
2717.574219	14802.063477
2716.148438	14698.031250
2714.722656	14595.809570
2713.295898	14646.739258
2711.870117	14562.171875
2710.442383	14540.965820
2709.015625	14683.307617
2707.587891	14874.801758
2706.159180	14726.981445
2704.731445	14770.765625
2703.301758	14688.040039
2701.873047	14631.700195
2700.443359	14601.723633
2699.013672	14735.014648
2697.583984	14706.780273
2696.153320	14838.221680
2694.721680	14587.199219
2693.291016	14616.888672
2691.859375	14595.718750
2690.426758	14535.995117
2688.995117	14553.404297
2687.562500	14647.887695
2686.128906	14481.350586
2684.695313	14563.544922
2683.261719	14776.993164
2681.828125	14664.799805
2680.393555	14627.899414
2678.958008	14820.175781
2677.523438	14697.557617
2676.087891	14765.578125
2674.651367	14674.496094
2673.215820	14932.970703
2671.778320	14602.531250
2670.341797	14873.119141
2668.904297	14895.601563
2667.466797	14554.939453
2666.028320	14722.354492
2664.589844	14518.008789
2663.151367	14852.819336
2661.711914	14507.269531
2660.272461	14862.836914
2658.833008	14710.951172
2657.392578	14562.625000
2655.952148	14752.384766
2654.510742	14670.311523
2653.069336	14859.947266
2651.627930	14715.208008
2650.185547	14610.573242
2648.743164	14740.911133
2647.300781	14479.744141
2645.857422	14738.754883
2644.414063	14881.130859
2642.970703	14674.010742
2641.526367	14607.770508
2640.082031	14618.013672
2638.636719	14795.013672
2637.191406	14768.731445
2635.746094	14634.813477
2634.299805	14679.750000
2632.853516	14842.667969
2631.406250	14937.840820
2629.959961	14954.911133
2628.511719	14932.087891
2627.064453	14756.713867
2625.616211	14905.535156
2624.167969	14943.383789
2622.718750	14944.833008
2621.269531	14650.125000
2619.819336	14885.391602
2618.370117	14765.676758
2616.918945	14787.929688
2615.468750	14863.805664
2614.017578	14917.154297
2612.566406	14636.722656
2611.114258	14894.104492
2609.662109	14819.498047
2608.209961	15000.669922
2606.756836	14967.533203
2605.303711	14913.685547
2603.849609	14908.210938
2602.395508	14721.480469
2600.941406	14900.715820
2599.486328	14727.881836
2598.031250	14915.647461
2596.576172	14873.957031
2595.120117	14894.352539
2593.664063	14752.713867
2592.207031	14795.528320
2590.750000	14759.072266
2589.292969	14841.474609
2587.834961	14827.407227
2586.376953	14999.264648
2584.918945	14811.335938
2583.459961	14731.898438
2582.000977	14821.077148
2580.541016	14726.197266
2579.081055	14875.505859
2577.621094	14883.789063
2576.161133	14909.250977
2574.699219	14792.104492
2573.238281	14747.153320
2571.776367	14827.575195
2570.314453	14866.752930
2568.851563	14914.492188
2567.389648	14737.428711
2565.925781	14635.931641
2564.462891	14690.548828
2562.998047	14650.834961
2561.534180	14753.413086
2560.069336	14936.479492
2558.604492	15047.497070
2557.138672	14632.620117
2555.672852	14663.172852
2554.207031	14626.941406
2552.740234	14956.993164
2551.273438	14824.881836
2549.806641	14812.583008
2548.338867	14750.691406
2546.871094	15097.470703
2545.402344	14695.373047
2543.933594	14727.543945
2542.464844	14701.609375
2540.995117	14827.704102
2539.525391	14408.999023
2538.054688	14714.356445
2536.583984	14674.791016
2535.113281	14705.204102
2533.641602	14628.128906
2532.169922	14771.096680
2530.698242	14593.442383
2529.225586	14613.612305
2527.752930	14674.669922
2526.279297	14635.174805
2524.805664	14384.487305
2523.332031	14646.492188
2521.857422	14661.507813
2520.382813	14875.651367
2518.908203	14597.924805
2517.432617	14699.696289
2515.956055	14859.239258
2514.480469	14682.041016
2513.003906	14729.314453
2511.526367	14594.721680
2510.049805	14645.387695
2508.571289	14726.600586
2507.093750	14724.562500
2505.615234	15002.644531
2504.135742	14674.657227
2502.657227	14699.778320
2501.177734	14653.635742
2499.697266	14604.124023
2498.216797	14597.024414
2496.736328	14508.560547
2495.254883	14654.007813
2493.773438	14657.062500
2492.291992	14773.599609
2490.809570	14744.444336
2489.327148	14698.373047
2487.843750	14760.645508
2486.360352	14953.177734
2484.876953	14827.575195
2483.392578	14565.042969
2481.908203	14588.392578
2480.423828	14887.260742
2478.938477	14697.578125
2477.453125	14729.319336
2475.966797	14781.311523
2474.480469	14774.171875
2472.993164	14535.746094
2471.506836	14731.207031
2470.018555	14680.209961
2468.531250	14716.958984
2467.042969	14834.640625
2465.553711	14609.983398
2464.065430	14584.348633
2462.576172	14875.548828
2461.085938	14775.724609
2459.595703	14760.167969
2458.105469	14781.665039
2456.614258	14661.735352
2455.123047	14969.368164
2453.630859	14809.064453
2452.139648	14921.361328
2450.646484	14789.739258
2449.154297	14844.814453
2447.661133	14615.781250
2446.166992	14743.132813
2444.672852	14781.372070
2443.178711	14715.453125
2441.683594	14812.450195
2440.188477	14897.645508
2438.693359	14761.250977
2437.197266	14848.090820
2435.701172	14805.715820
2434.205078	14832.122070
2432.708008	14922.225586
2431.209961	14925.118164
2429.712891	14733.616211
2428.213867	14709.746094
2426.715820	14612.190430
2425.216797	14667.063477
2423.717773	14489.208984
2422.217773	14858.730469
2420.717773	14627.372070
2419.216797	14662.105469
2417.715820	14741.973633
2416.214844	14672.997070
2414.713867	14701.001953
2413.210938	14665.490234
2411.708984	14810.426758
2410.206055	14744.836914
2408.703125	14602.468750
2407.199219	14827.436523
2405.695313	14638.385742
2404.191406	14589.587891
2402.686523	14759.333984
2401.181641	14618.804688
2399.675781	14663.410156
2398.169922	14691.323242
2396.664063	14677.560547
2395.157227	14630.484375
2393.650391	14676.701172
2392.142578	14731.217773
2390.634766	14660.854492
2389.126953	14700.366211
2387.618164	14625.052734
2386.109375	14742.730469
2384.599609	14557.685547
2383.089844	14612.140625
2381.580078	14757.983398
2380.069336	14872.176758
2378.558594	14466.333984
2377.047852	14600.471680
2375.536133	14593.403320
2374.023438	14558.117188
2372.511719	14569.316406
2370.998047	14680.056641
2369.485352	14613.255859
2367.971680	14581.311523
2366.458008	14610.723633
2364.943359	14701.444336
2363.428711	14584.991211
2361.913086	14619.345703
2360.397461	14456.597656
2358.881836	14620.111328
2357.365234	14478.962891
2355.848633	14465.311523
2354.332031	14650.201172
2352.814453	14611.699219
2351.295898	14710.465820
2349.778320	14536.405273
2348.258789	14722.732422
2346.740234	14733.816406
2345.220703	14424.423828
2343.701172	14767.522461
2342.180664	14621.732422
2340.660156	14703.801758
2339.138672	14508.593750
2337.617188	14448.766602
2336.095703	14532.461914
2334.573242	14639.198242
2333.050781	14671.696289
2331.528320	14587.161133
2330.004883	14535.622070
2328.480469	14642.242188
2326.957031	14412.857422
2325.431641	14552.378906
2323.907227	14471.269531
2322.381836	14653.485352
2320.856445	14574.033203
2319.330078	14583.433594
2317.803711	14614.204102
2316.276367	14460.846680
2314.749023	14389.737305
2313.221680	14731.054688
2311.693359	14357.677734
2310.165039	14516.545898
2308.635742	14606.378906
2307.106445	14609.175781
2305.577148	14602.124023
2304.046875	14668.894531
2302.516602	14615.908203
2300.985352	14643.288086
2299.454102	14464.115234
2297.922852	14545.596680
2296.390625	14638.501953
2294.858398	14747.737305
2293.325195	14560.530273
2291.791992	14463.457031
2290.258789	14610.291016
2288.724609	14354.539063
2287.190430	14627.279297
2285.655273	14430.525391
2284.120117	14284.555664
2282.583984	14439.412109
2281.048828	14514.117188
2279.511719	14503.830078
2277.975586	14495.179688
2276.438477	14448.977539
2274.900391	14368.517578
2273.362305	14384.385742
2271.824219	14388.822266
2270.285156	14393.255859
2268.746094	14640.664063
2267.206055	14353.202148
2265.666016	14561.373047
2264.125977	14353.921875
2262.584961	14552.207031
2261.043945	14444.208984
2259.502930	14344.405273
2257.960938	14360.224609
2256.417969	14413.463867
2254.875000	14500.838867
2253.332031	14506.842773
2251.789063	14525.849609
2250.245117	14382.279297
2248.700195	14385.053711
2247.155273	14382.952148
2245.610352	14504.303711
2244.064453	14630.462891
2242.518555	14167.203125
2240.972656	14381.031250
2239.425781	14270.204102
2237.877930	14368.708984
2236.331055	14527.170898
2234.783203	14437.465820
2233.234375	14407.785156
2231.685547	14418.633789
2230.136719	14458.638672
2228.586914	14477.564453
2227.037109	14402.555664
2225.486328	14382.628906
2223.935547	14293.115234
2222.384766	14436.652344
2220.833008	14597.908203
2219.281250	14412.985352
2217.728516	14438.346680
2216.175781	14400.653320
2214.622070	14498.721680
2213.068359	14410.946289
2211.514648	14260.223633
2209.959961	14359.862305
2208.405273	14512.720703
2206.850586	14413.730469
2205.294922	14363.194336
2203.738281	14514.315430
2202.181641	14297.674805
2200.625000	14468.079102
2199.068359	14503.000977
2197.510742	14254.300781
2195.952148	14521.236328
2194.393555	14572.219727
2192.834961	14396.146484
2191.275391	14451.961914
2189.715820	14551.197266
2188.155273	14397.787109
2186.595703	14591.881836
2185.034180	14613.813477
2183.472656	14428.350586
2181.911133	14431.024414
2180.349609	14510.821289
2178.787109	14571.298828
2177.223633	14604.443359
2175.660156	14391.922852
2174.096680	14567.948242
2172.532227	14461.455078
2170.967773	14438.437500
2169.403320	14492.416016
2167.837891	14419.694336
2166.271484	14238.002930
2164.705078	14453.850586
2163.138672	14480.526367
2161.572266	14566.452148
2160.003906	14618.703125
2158.436523	14222.666016
2156.868164	14631.891602
2155.299805	14479.268555
2153.730469	14385.912109
2152.161133	14534.091797
2150.590820	14536.698242
2149.020508	14467.372070
2147.450195	14557.881836
2145.878906	14488.583984
2144.307617	14444.875000
2142.735352	14353.286133
2141.163086	14448.514648
