#Wave		#Intensity
3550.429688	17811.005859
3549.198242	17863.984375
3547.965820	17780.722656
3546.733398	17668.978516
3545.500977	17744.623047
3544.268555	17659.398438
3543.035156	18003.689453
3541.801758	18005.947266
3540.568359	17857.640625
3539.333984	17764.320313
3538.099609	17809.330078
3536.865234	17992.580078
3535.630859	17728.523438
3534.395508	17795.863281
3533.160156	17958.673828
3531.924805	17922.322266
3530.689453	17723.494141
3529.453125	17939.007813
3528.216797	17922.978516
3526.980469	17870.417969
3525.743164	17748.880859
3524.505859	17807.966797
3523.268555	17834.570313
3522.031250	17857.105469
3520.792969	17910.041016
3519.555664	17950.791016
3518.316406	18127.312500
3517.078125	18080.861328
3515.838867	17985.806641
3514.599609	18079.158203
3513.360352	18052.990234
3512.121094	18028.857422
3510.880859	17875.187500
3509.640625	18148.583984
3508.399414	18156.810547
3507.159180	18150.873047
3505.917969	18219.765625
3504.676758	17870.080078
3503.434570	18120.935547
3502.192383	18167.550781
3500.951172	18343.464844
3499.708008	18183.947266
3498.465820	18216.373047
3497.222656	18194.261719
3495.979492	18309.443359
3494.735352	18351.908203
3493.492188	18170.351563
3492.248047	18111.943359
3491.003906	18281.500000
3489.758789	18501.396484
3488.514648	18362.296875
3487.268555	18297.843750
3486.023438	18241.476563
3484.778320	18312.076172
3483.532227	18406.816406
3482.286133	18426.994141
3481.039063	18416.953125
3479.792969	18441.140625
3478.545898	18447.201172
3477.297852	18278.181641
3476.050781	18590.080078
3474.802734	18686.613281
3473.554688	18453.292969
3472.306641	18370.865234
3471.057617	18465.367188
3469.808594	18505.564453
3468.559570	18612.046875
3467.310547	18473.400391
3466.060547	18477.412109
3464.810547	18397.082031
3463.559570	18509.509766
3462.309570	18314.800781
3461.058594	18385.052734
3459.807617	18629.814453
3458.556641	18401.101563
3457.304688	18577.568359
3456.052734	18661.728516
3454.800781	18639.611328
3453.547852	18711.693359
3452.294922	18551.324219
3451.041992	18621.384766
3449.789063	18535.203125
3448.535156	18719.363281
3447.281250	18703.255859
3446.027344	18749.199219
3444.772461	18605.025391
3443.518555	18514.929688
3442.263672	18678.880859
3441.007813	18692.785156
3439.752930	18682.691406
3438.497070	18780.533203
3437.241211	18646.521484
3435.984375	18588.488281
3434.727539	18748.201172
3433.470703	18470.494141
3432.213867	18508.365234
3430.956055	18697.927734
3429.699219	18857.468750
3428.440430	18765.531250
3427.182617	18667.650391
3425.923828	18559.835938
3424.665039	18769.107422
3423.406250	18735.074219
3422.146484	18722.978516
3420.886719	18702.916016
3419.626953	18627.078125
3418.367188	18774.349609
3417.106445	18851.857422
3415.845703	18618.750000
3414.584961	18817.669922
3413.323242	18817.501953
3412.061523	18928.744141
3410.799805	18755.492188
3409.538086	18928.345703
3408.275391	18667.681641
3407.012695	18820.595703
3405.750000	18508.396484
3404.486328	18621.535156
3403.222656	18750.513672
3401.958984	18678.841797
3400.695313	18897.099609
3399.430664	18434.343750
3398.166016	18608.890625
3396.901367	18868.681641
3395.635742	18578.828125
3394.370117	19005.115234
3393.104492	18836.316406
3391.838867	18798.439453
3390.572266	18451.369141
3389.305664	18587.974609
3388.039063	18730.462891
3386.771484	18815.441406
3385.503906	18678.583984
3384.236328	18620.978516
3382.968750	18862.296875
3381.700195	18454.386719
3380.431641	18760.923828
3379.163086	18946.656250
3377.893555	18845.537109
3376.624023	18633.732422
3375.354492	18813.433594
3374.083984	18694.617188
3372.814453	18755.662109
3371.543945	18512.449219
3370.272461	18707.808594
3369.001953	18754.982422
3367.730469	18642.222656
3366.458008	18857.154297
3365.186523	18783.882813
3363.914063	18416.687500
3362.641602	18461.890625
3361.369141	18808.783203
3360.095703	18455.623047
3358.822266	18717.601563
3357.548828	18819.835938
3356.274414	18815.632813
3355.000000	18705.060547
3353.725586	18513.791016
3352.451172	18586.439453
3351.175781	18672.832031
3349.900391	18637.167969
3348.625000	18833.689453
3347.348633	18731.117188
3346.072266	18833.126953
3344.795898	18848.570313
3343.519531	18879.734375
3342.242188	18908.914063
3340.964844	18824.113281
3339.687500	19035.988281
3338.409180	18868.703125
3337.130859	18917.488281
3335.852539	18968.212891
3334.573242	18914.886719
3333.294922	18892.980469
3332.014648	19084.921875
3330.735352	18855.072266
3329.455078	18876.330078
3328.174805	18715.244141
3326.894531	18709.076172
3325.613281	18838.125000
3324.333008	18829.970703
3323.050781	18837.486328
3321.769531	18870.455078
3320.487305	19007.173828
3319.205078	18928.511719
3317.922852	19055.367188
3316.639648	18853.460938
3315.356445	19046.781250
3314.073242	19044.443359
3312.789063	19190.703125
3311.505859	19174.644531
3310.220703	19027.650391
3308.936523	19011.632813
3307.651367	19077.667969
3306.366211	19030.392578
3305.081055	19299.458984
3303.794922	19377.089844
3302.508789	19118.988281
3301.222656	19042.468750
3299.936523	19081.082031
3298.649414	19322.515625
3297.362305	19478.041016
3296.074219	19208.500000
3294.787109	19338.638672
3293.499023	19285.544922
3292.209961	19374.689453
3290.921875	19097.617188
3289.632813	19280.230469
3288.343750	19153.208984
3287.053711	19203.367188
3285.763672	19224.310547
3284.473633	19272.478516
3283.183594	19248.656250
3281.892578	19407.638672
3280.601563	19564.603516
3279.310547	19459.083984
3278.018555	19497.417969
3276.726563	19374.472656
3275.434570	19531.292969
3274.142578	19404.507813
3272.849609	19557.361328
3271.556641	19609.207031
3270.262695	19521.296875
3268.969727	19499.392578
3267.675781	19364.988281
3266.380859	19387.730469
3265.086914	19486.078125
3263.791992	19541.732422
3262.497070	19415.185547
3261.201172	19259.628906
3259.905273	19538.062500
3258.609375	19742.771484
3257.313477	19219.349609
3256.016602	19474.365234
3254.719727	19675.072266
3253.422852	19628.011719
3252.125000	19608.054688
3250.827148	19684.806641
3249.529297	19614.568359
3248.230469	19530.826172
3246.931641	19530.228516
3245.632813	19583.732422
3244.333984	19482.662109
3243.034180	19704.179688
3241.734375	19680.361328
3240.434570	19619.873047
3239.133789	19812.250000
3237.833008	19624.398438
3236.532227	19538.878906
3235.230469	19536.332031
3233.928711	19587.775391
3232.626953	19704.742188
3231.325195	19619.273438
3230.022461	19699.562500
3228.719727	19960.906250
3227.416016	19721.341797
3226.112305	19917.085938
3224.808594	19731.542969
3223.504883	19817.476563
3222.200195	19799.455078
3220.895508	19829.537109
3219.590820	19823.058594
3218.286133	19716.582031
3216.980469	19873.544922
3215.673828	19832.455078
3214.368164	19945.115234
3213.061523	19654.263672
3211.754883	19814.929688
3210.448242	19677.863281
3209.140625	19692.531250
3207.833008	19878.023438
3206.525391	19670.029297
3205.216797	19772.937500
3203.908203	19870.041016
3202.599609	19783.000000
3201.290039	19832.121094
3199.980469	20067.150391
3198.670898	19805.726563
3197.360352	19833.726563
3196.050781	19664.416016
3194.740234	19931.814453
3193.428711	19967.417969
3192.117188	19895.810547
3190.805664	19594.585938
3189.494141	19727.814453
3188.181641	19736.644531
3186.869141	19810.488281
3185.556641	19563.089844
3184.243164	19904.546875
3182.929688	19922.875000
3181.616211	19752.039063
3180.302734	19938.484375
3178.988281	19952.964844
3177.673828	19820.421875
3176.358398	19827.283203
3175.042969	20034.521484
3173.727539	19793.291016
3172.412109	19803.962891
3171.095703	19688.757813
3169.779297	19756.644531
3168.462891	19618.626953
3167.145508	19993.320313
3165.828125	19819.105469
3164.510742	19635.447266
3163.192383	20006.060547
3161.874023	19944.292969
3160.555664	19791.181641
3159.236328	19921.703125
3157.917969	19546.052734
3156.597656	19855.375000
3155.278320	19700.517578
3153.958008	19886.068359
3152.637695	19854.828125
3151.316406	19542.333984
3149.996094	19796.185547
3148.674805	19951.140625
3147.352539	19870.529297
3146.031250	19742.486328
3144.708984	19768.257813
3143.385742	19862.335938
3142.063477	20032.261719
3140.740234	19788.580078
3139.416016	19747.931641
3138.092773	19760.388672
3136.768555	19915.005859
3135.444336	19760.642578
3134.119141	19727.609375
3132.793945	19971.150391
3131.468750	19667.261719
3130.143555	19816.031250
3128.817383	19913.619141
3127.491211	19804.876953
3126.164063	19622.394531
3124.836914	19763.458984
3123.509766	19811.789063
3122.182617	20051.056641
3120.854492	19997.218750
3119.526367	20037.892578
3118.198242	20099.330078
3116.869141	19922.730469
3115.540039	19950.167969
3114.210938	20100.316406
3112.880859	19776.597656
3111.550781	20249.417969
3110.220703	20014.488281
3108.889648	20243.695313
3107.559570	19910.810547
3106.227539	19783.587891
3104.896484	19918.431641
3103.564453	20077.710938
3102.232422	20012.707031
3100.899414	20175.650391
3099.566406	20012.722656
3098.233398	20136.048828
3096.900391	19937.439453
3095.566406	20038.138672
3094.232422	19941.238281
3092.897461	20034.359375
3091.563477	20195.134766
3090.228516	20231.746094
3088.892578	20119.845703
3087.556641	20118.867188
3086.220703	20309.523438
3084.884766	20359.212891
3083.547852	20234.234375
3082.210938	20456.636719
3080.874023	20205.929688
3079.536133	20058.548828
3078.198242	20183.273438
3076.860352	20178.513672
3075.521484	20263.765625
3074.182617	20245.863281
3072.843750	20364.792969
3071.504883	20335.625000
3070.165039	20424.498047
3068.824219	20131.230469
3067.484375	20126.476563
3066.143555	20512.998047
3064.802734	20045.843750
3063.460938	20379.802734
3062.119141	20418.013672
3060.777344	20486.130859
3059.435547	20447.626953
3058.092773	20493.267578
3056.750000	20292.169922
3055.406250	20638.664063
3054.062500	20432.017578
3052.718750	20621.423828
3051.375000	20446.619141
3050.030273	20396.972656
3048.685547	20576.912109
3047.339844	20400.369141
3045.995117	20296.662109
3044.649414	20745.060547
3043.302734	20544.357422
3041.956055	20660.656250
3040.609375	20417.197266
3039.262695	20693.710938
3037.915039	20603.107422
3036.567383	20644.777344
3035.219727	20528.158203
3033.871094	20677.789063
3032.522461	20494.214844
3031.173828	20666.105469
3029.824219	20638.873047
3028.474609	20600.492188
3027.124023	20489.613281
3025.774414	20315.583984
3024.423828	20461.285156
3023.072266	20679.375000
3021.721680	20319.664063
3020.370117	20426.253906
3019.017578	20571.781250
3017.666016	20566.882813
3016.313477	20716.015625
3014.959961	20358.566406
3013.607422	20659.773438
3012.253906	20643.722656
3010.899414	20631.386719
3009.545898	20567.154297
3008.191406	20597.458984
3006.835938	20640.716797
3005.481445	20554.292969
3004.125977	20629.017578
3002.770508	20453.769531
3001.414063	20626.574219
3000.057617	20560.583984
2998.701172	20738.826172
2997.343750	20510.072266
2995.986328	20569.892578
2994.628906	20535.398438
2993.270508	20419.593750
2991.912109	20484.929688
2990.553711	20354.410156
2989.194336	20484.367188
2987.834961	20848.765625
2986.475586	20400.724609
2985.115234	20609.933594
2983.754883	20608.691406
2982.394531	20411.904297
2981.034180	20486.320313
2979.672852	20746.927734
2978.310547	20629.509766
2976.949219	20593.236328
2975.586914	20650.947266
2974.223633	20618.365234
2972.861328	20698.136719
2971.498047	21002.492188
2970.134766	20585.126953
2968.770508	20666.683594
2967.406250	20549.492188
2966.041992	20743.216797
2964.676758	20898.228516
2963.311523	20760.835938
2961.946289	20798.126953
2960.580078	20589.150391
2959.213867	20654.017578
2957.847656	20920.896484
2956.480469	20855.269531
2955.113281	20989.783203
2953.746094	20960.875000
2952.377930	20924.638672
2951.009766	20838.882813
2949.641602	20925.576172
2948.272461	20880.199219
2946.903320	20954.001953
2945.534180	20958.121094
2944.164063	20943.912109
2942.793945	21217.320313
2941.423828	21245.175781
2940.052734	21360.904297
2938.681641	21229.445313
2937.309570	21160.273438
2935.938477	21431.457031
2934.566406	21503.119141
2933.193359	21508.906250
2931.821289	21169.121094
2930.447266	21244.443359
2929.074219	21445.824219
2927.700195	21183.031250
2926.326172	21539.587891
2924.952148	21516.125000
2923.577148	21492.669922
2922.202148	21545.886719
2920.826172	21423.890625
2919.451172	21384.048828
2918.074219	21231.136719
2916.698242	21300.767578
2915.321289	21209.931641
2913.944336	21520.121094
2912.567383	21473.003906
2911.189453	21460.521484
2909.810547	21448.041016
2908.432617	21360.910156
2907.053711	21355.738281
2905.674805	21516.187500
2904.294922	21561.923828
2902.915039	21602.177734
2901.535156	21404.162109
2900.155273	21518.980469
2898.774414	21521.035156
2897.392578	21681.197266
2896.011719	21617.798828
2894.629883	21568.958984
2893.248047	21788.916016
2891.865234	21671.062500
2890.482422	21736.593750
2889.099609	21720.429688
2887.715820	21834.898438
2886.332031	21782.437500
2884.948242	21586.740234
2883.563477	21710.214844
2882.178711	21704.941406
2880.792969	21717.787109
2879.408203	21603.810547
2878.022461	21556.900391
2876.635742	21596.927734
2875.249023	21734.689453
2873.862305	21722.164063
2872.475586	21839.919922
2871.087891	21800.234375
2869.700195	21713.542969
2868.311523	21610.619141
2866.923828	21619.818359
2865.534180	21598.289063
2864.145508	21936.318359
2862.755859	21676.279297
2861.366211	21681.832031
2859.975586	21743.351563
2858.584961	21638.773438
2857.194336	21684.027344
2855.802734	21427.960938
2854.411133	21078.224609
2853.019531	21554.556641
2851.626953	21841.357422
2850.234375	21686.429688
2848.841797	21618.066406
2847.448242	21454.255859
2846.054688	21349.958984
2844.661133	21497.798828
2843.266602	21472.744141
2841.872070	21544.888672
2840.476563	21458.654297
2839.082031	21354.470703
2837.686523	21419.390625
2836.290039	21281.101563
2834.893555	21096.140625
2833.497070	21139.503906
2832.099609	21157.689453
2830.703125	21139.937500
2829.304688	21172.476563
2827.907227	21158.318359
2826.508789	20944.927734
2825.109375	20964.921875
2823.710938	21105.103516
2822.311523	20924.162109
2820.911133	20963.863281
2819.511719	21288.587891
2818.111328	21123.857422
2816.709961	20959.205078
2815.308594	20936.152344
2813.907227	20977.583984
2812.505859	21074.498047
2811.103516	20713.101563
2809.701172	20965.728516
2808.297852	21014.259766
2806.894531	21255.953125
2805.491211	21240.003906
2804.087891	21106.060547
2802.683594	21208.125000
2801.278320	20906.271484
2799.874023	21158.402344
2798.468750	21124.625000
2797.062500	21089.076172
2795.657227	21039.261719
2794.250977	21182.228516
2792.843750	21059.251953
2791.437500	21180.732422
2790.029297	21107.750000
2788.622070	20929.599609
2787.213867	21140.146484
2785.805664	21158.113281
2784.396484	21158.250000
2782.988281	21174.416016
2781.578125	21208.380859
2780.168945	21151.525391
2778.758789	21009.255859
2777.347656	21219.406250
2775.937500	21411.660156
2774.526367	21255.195313
2773.114258	21297.966797
2771.703125	21472.275391
2770.290039	21193.265625
2768.877930	21282.216797
2767.464844	21179.259766
2766.051758	21241.523438
2764.637695	21209.648438
2763.224609	21309.148438
2761.809570	21268.394531
2760.395508	21367.826172
2758.980469	21348.359375
2757.564453	21493.828125
2756.149414	21261.576172
2754.733398	21323.679688
2753.316406	21467.267578
2751.900391	21224.558594
2750.483398	21316.730469
2749.065430	21616.035156
2747.647461	21531.025391
2746.229492	21669.062500
2744.811523	21352.275391
2743.392578	21527.433594
2741.972656	21467.281250
2740.553711	21757.250000
2739.133789	21566.253906
2737.712891	21242.802734
2736.292969	21744.628906
2734.872070	21493.712891
2733.450195	21733.859375
2732.028320	21673.742188
2730.606445	21809.580078
2729.184570	21753.000000
2727.761719	21638.226563
2726.338867	21684.011719
2724.915039	21565.781250
2723.491211	21814.292969
2722.067383	21703.132813
2720.642578	21551.500000
2719.217773	21570.814453
2717.792969	21664.085938
2716.367188	21484.396484
2714.941406	21686.777344
2713.514648	21510.687500
2712.088867	21461.361328
2710.661133	21401.501953
2709.234375	21714.482422
2707.806641	21482.291016
2706.378906	21533.199219
2704.950195	21640.308594
2703.521484	21575.199219
2702.091797	21757.765625
2700.663086	21689.142578
2699.233398	21764.500000
2697.802734	21888.960938
2696.372070	21662.433594
2694.941406	21721.947266
2693.509766	21695.496094
2692.078125	21739.189453
2690.646484	21577.771484
2689.214844	21674.041016
2687.781250	21614.332031
2686.348633	21922.476563
2684.915039	21496.746094
2683.481445	21668.208984
2682.047852	21552.544922
2680.613281	21743.152344
2679.178711	21704.494141
2677.743164	21679.843750
2676.307617	21718.150391
2674.872070	21992.425781
2673.435547	21831.400391
2671.999023	21791.009766
2670.561523	21567.228516
2669.125000	21521.679688
2667.686523	21767.716797
2666.249023	21933.335938
2664.810547	21854.570313
2663.372070	21590.914063
2661.932617	21662.263672
2660.493164	21496.431641
2659.053711	21872.837891
2657.613281	21801.144531
2656.172852	21928.119141
2654.731445	21947.025391
2653.291016	21730.814453
2651.848633	21699.263672
2650.407227	21824.386719
2648.964844	21582.257813
2647.521484	21738.660156
2646.079102	21961.076172
2644.635742	21922.541016
2643.191406	21904.884766
2641.747070	21789.904297
2640.302734	21820.939453
2638.858398	21801.578125
2637.413086	21768.332031
2635.967773	21446.871094
2634.521484	21936.222656
2633.075195	22151.126953
2631.627930	22001.570313
2630.181641	21874.636719
2628.733398	22020.023438
2627.286133	22130.660156
2625.837891	22047.115234
2624.389648	22067.578125
2622.940430	21821.240234
2621.491211	21909.292969
2620.041992	22004.224609
2618.591797	21984.853516
2617.141602	21859.919922
2615.690430	22055.138672
2614.240234	21954.464844
2612.788086	22151.285156
2611.336914	22325.531250
2609.884766	22138.431641
2608.431641	22193.353516
2606.979492	21985.646484
2605.525391	22242.652344
2604.072266	22366.568359
2602.618164	22174.505859
2601.164063	22175.833984
2599.708984	22185.787109
2598.253906	22021.507813
2596.798828	22078.054688
2595.342773	22150.085938
2593.886719	22192.777344
2592.430664	21845.984375
2590.973633	22390.074219
2589.516602	22010.675781
2588.058594	21962.085938
2586.600586	22027.138672
2585.142578	22007.824219
2583.683594	22172.628906
2582.224609	21993.298828
2580.764648	21917.246094
2579.304688	22076.783203
2577.844727	22286.087891
2576.383789	21993.480469
2574.923828	22357.322266
2573.461914	22092.322266
2572.000000	22098.771484
2570.538086	22088.048828
2569.076172	22065.314453
2567.613281	22221.044922
2566.150391	22332.089844
2564.686523	22338.460938
2563.222656	21794.435547
2561.758789	22371.755859
2560.293945	22102.191406
2558.829102	22101.750000
2557.363281	22356.527344
2555.897461	22195.048828
2554.431641	22228.818359
2552.964844	22101.679688
2551.498047	22236.410156
2550.031250	21943.390625
2548.563477	22047.302734
2547.095703	22101.574219
2545.626953	22200.261719
2544.158203	22251.046875
2542.689453	22059.185547
2541.219727	22191.964844
2539.750000	22116.335938
2538.280273	22400.976563
2536.809570	22146.111328
2535.337891	22091.021484
2533.867188	22209.964844
2532.395508	22067.900391
2530.922852	21973.648438
2529.451172	22176.054688
2527.978516	22339.158203
2526.504883	21890.509766
2525.031250	21995.685547
2523.557617	22337.511719
2522.083008	22098.609375
2520.608398	22276.833984
2519.133789	22198.015625
2517.658203	22149.859375
2516.182617	22247.992188
2514.706055	22211.744141
2513.229492	22122.814453
2511.752930	21964.250000
2510.275391	22425.919922
2508.797852	22231.681641
2507.319336	22069.806641
2505.840820	22162.677734
2504.362305	22292.837891
2502.882813	22125.974609
2501.403320	22369.738281
2499.923828	22384.412109
2498.443359	22068.429688
2496.962891	22150.974609
2495.481445	22343.632813
2494.000000	22261.712891
2492.518555	22476.261719
2491.036133	22258.867188
2489.553711	22270.140625
2488.071289	22352.496094
2486.587891	22504.185547
2485.103516	22513.689453
2483.620117	22599.294922
2482.135742	22235.080078
2480.650391	22334.232422
2479.165039	22590.503906
2477.679688	22388.763672
2476.194336	22411.783203
2474.708008	22363.859375
2473.220703	22510.115234
2471.733398	22570.210938
2470.246094	22586.402344
2468.758789	22396.767578
2467.270508	22566.466797
2465.782227	22493.273438
2464.292969	22462.257813
2462.803711	22587.988281
2461.313477	22309.285156
2459.823242	22564.687500
2458.333008	22545.462891
2456.841797	22465.638672
2455.350586	22680.404297
2453.859375	22646.015625
2452.367188	22367.708984
2450.875000	22617.648438
2449.381836	22537.896484
2447.888672	22520.378906
2446.395508	22712.941406
2444.901367	22685.302734
2443.407227	22666.076172
2441.912109	22361.378906
2440.417969	22364.064453
2438.921875	22514.449219
2437.425781	22359.357422
2435.929688	22437.527344
2434.433594	22560.935547
2432.936523	22370.734375
2431.439453	22086.755859
2429.941406	22536.945313
2428.443359	22361.968750
2426.944336	22726.429688
2425.446289	22559.861328
2423.946289	22626.082031
2422.447266	22529.917969
2420.947266	22412.044922
2419.446289	22411.332031
2417.945313	22601.275391
2416.444336	22533.630859
2414.942383	22584.699219
2413.440430	22380.054688
2411.938477	22533.044922
2410.435547	22600.771484
2408.932617	22381.244141
2407.429688	22552.474609
2405.925781	22540.025391
2404.420898	22430.802734
2402.916016	22521.810547
2401.411133	22522.712891
2399.906250	22561.960938
2398.400391	22541.179688
2396.893555	22465.414063
2395.387695	22296.386719
2393.880859	22570.492188
2392.373047	22426.498047
2390.865234	22725.398438
2389.357422	22623.041016
2387.848633	22705.427734
2386.339844	22732.873047
2384.830078	22534.130859
2383.320313	22526.689453
2381.810547	22916.509766
2380.299805	22646.412109
2378.789063	22597.406250
2377.278320	22709.531250
2375.766602	22371.607422
2374.254883	22452.187500
2372.742188	22550.980469
2371.229492	22629.808594
2369.715820	22532.765625
2368.203125	22689.498047
2366.688477	22575.904297
2365.174805	22561.818359
2363.660156	22501.339844
2362.144531	22613.179688
2360.628906	22592.462891
2359.113281	22550.228516
2357.596680	22599.060547
2356.080078	22608.146484
2354.563477	22670.167969
2353.045898	22575.019531
2351.528320	22560.945313
2350.009766	22707.242188
2348.491211	22764.208984
2346.971680	22596.417969
2345.452148	22541.046875
2343.932617	22485.701172
2342.413086	22526.144531
2340.891602	22726.683594
2339.371094	22773.642578
2337.849609	22703.437500
2336.328125	22676.150391
2334.805664	22764.302734
2333.283203	22692.500000
2331.760742	22734.451172
2330.237305	22593.482422
2328.712891	22498.708984
2327.189453	22781.115234
2325.665039	22515.107422
2324.139648	22642.632813
2322.614258	22682.873047
2321.088867	22492.767578
2319.562500	22513.287109
2318.036133	22796.882813
2316.509766	22733.468750
2314.982422	22822.927734
2313.455078	22902.480469
2311.926758	22453.064453
2310.398438	22690.318359
2308.869141	22840.433594
2307.339844	22796.791016
2305.810547	22653.070313
2304.280273	22657.066406
2302.750000	22877.550781
2301.218750	22750.310547
2299.688477	22629.691406
2298.156250	22700.873047
2296.624023	22516.425781
2295.091797	22741.564453
2293.559570	22593.224609
2292.026367	22872.248047
2290.492188	22473.533203
2288.958984	22480.816406
2287.423828	22669.673828
2285.889648	22724.328125
2284.354492	22556.587891
2282.818359	22632.488281
2281.283203	22603.759766
2279.746094	22633.857422
2278.209961	22579.005859
2276.672852	22666.242188
2275.134766	22645.689453
2273.596680	22657.785156
2272.058594	22521.392578
2270.519531	22332.871094
2268.980469	22485.279297
2267.441406	22828.359375
2265.901367	22775.183594
2264.361328	22827.953125
2262.820313	22866.029297
2261.279297	22663.041016
2259.737305	22819.998047
2258.195313	22849.902344
2256.653320	22565.699219
2255.110352	22799.021484
2253.567383	22758.958984
2252.024414	22905.921875
2250.480469	22823.578125
2248.935547	22762.404297
2247.390625	22761.382813
2245.845703	22565.421875
2244.300781	22783.691406
2242.754883	22508.263672
2241.208008	22781.621094
2239.661133	22655.628906
2238.114258	22638.398438
2236.566406	22857.978516
2235.018555	22712.599609
2233.470703	22875.302734
2231.921875	22801.300781
2230.373047	22821.310547
2228.823242	22894.761719
2227.273438	22663.722656
2225.722656	22805.169922
2224.171875	22970.820313
2222.621094	22853.207031
2221.069336	23041.402344
2219.517578	23033.804688
2217.964844	22979.316406
2216.412109	22730.878906
2214.859375	22684.574219
2213.305664	22807.935547
2211.751953	22926.382813
2210.197266	22818.695313
2208.642578	22951.603516
2207.086914	22947.253906
2205.531250	22886.431641
2203.975586	22820.798828
2202.418945	23048.710938
2200.862305	22957.269531
2199.305664	23083.474609
2197.748047	22782.578125
2196.189453	22995.755859
2194.630859	22917.298828
2193.072266	23075.578125
2191.512695	23034.162109
2189.953125	23229.339844
2188.393555	23173.419922
2186.833008	22963.111328
2185.272461	22912.109375
2183.710938	23097.462891
2182.149414	23130.025391
2180.586914	23050.091797
2179.024414	23042.486328
2177.461914	22994.732422
2175.898438	23264.906250
2174.334961	23146.488281
2172.770508	23071.457031
2171.206055	23118.392578
2169.641602	23259.931641
2168.076172	23157.664063
2166.509766	23360.031250
2164.944336	23301.058594
2163.377930	23170.013672
2161.810547	23248.873047
2160.243164	23058.654297
2158.675781	23510.527344
2157.107422	23185.886719
2155.538086	23072.632813
2153.969727	23255.386719
2152.400391	23076.597656
2150.830078	22947.466797
2149.259766	23297.945313
2147.689453	23200.779297
2146.118164	23100.466797
2144.546875	23204.652344
2142.974609	23181.033203
2141.402344	23101.552734
