#Wave		#Intensity
3550.405273	50924.441406
3549.173828	50769.582031
3547.941406	50836.160156
3546.708984	50735.695313
3545.476563	50790.023438
3544.243164	50709.957031
3543.010742	50560.710938
3541.777344	50594.675781
3540.542969	50248.156250
3539.309570	50994.113281
3538.075195	50499.179688
3536.840820	50313.511719
3535.605469	50841.449219
3534.371094	50584.640625
3533.135742	50724.171875
3531.900391	50902.238281
3530.664063	50192.628906
3529.428711	50281.371094
3528.192383	50544.667969
3526.955078	50619.078125
3525.718750	50380.925781
3524.481445	50842.851563
3523.244141	50736.593750
3522.006836	50472.187500
3520.768555	50655.996094
3519.530273	50973.511719
3518.291992	50871.347656
3517.053711	51121.800781
3515.814453	50610.414063
3514.575195	51201.078125
3513.335938	51275.105469
3512.095703	51561.675781
3510.855469	51006.078125
3509.615234	50665.226563
3508.375000	51101.445313
3507.133789	51403.964844
3505.892578	51069.296875
3504.651367	51222.058594
3503.410156	51176.636719
3502.167969	51001.882813
3500.925781	51257.593750
3499.683594	51115.207031
3498.440430	51267.765625
3497.197266	51024.460938
3495.954102	51045.730469
3494.710938	51416.179688
3493.466797	51378.824219
3492.222656	51022.695313
3490.978516	51860.871094
3489.734375	51928.292969
3488.489258	51414.992188
3487.244141	51581.246094
3485.999023	51559.988281
3484.752930	51679.785156
3483.506836	51507.414063
3482.260742	51548.605469
3481.014648	51340.082031
3479.767578	51697.355469
3478.520508	51400.316406
3477.273438	51548.125000
3476.025391	51343.781250
3474.777344	51847.558594
3473.529297	52172.128906
3472.281250	51700.359375
3471.032227	51932.339844
3469.784180	51732.125000
3468.534180	51933.847656
3467.285156	52145.523438
3466.035156	51985.542969
3464.785156	51693.101563
3463.535156	51774.183594
3462.284180	51676.589844
3461.033203	51362.316406
3459.782227	51778.437500
3458.531250	51957.691406
3457.279297	52024.558594
3456.027344	51957.062500
3454.775391	51827.453125
3453.522461	52142.785156
3452.270508	52149.425781
3451.016602	51873.609375
3449.763672	51956.394531
3448.509766	52355.496094
3447.255859	52406.097656
3446.001953	51846.246094
3444.748047	52115.031250
3443.493164	51997.589844
3442.238281	51658.187500
3440.983398	52220.765625
3439.727539	52067.378906
3438.471680	52025.980469
3437.215820	52094.503906
3435.958984	51999.164063
3434.703125	51935.820313
3433.446289	52301.855469
3432.188477	51813.191406
3430.931641	51975.476563
3429.673828	52273.390625
3428.416016	52066.367188
3427.157227	51797.589844
3425.898438	51927.800781
3424.639648	52325.136719
3423.380859	51709.593750
3422.121094	51907.484375
3420.862305	52131.187500
3419.601563	51743.183594
3418.341797	51769.628906
3417.081055	52029.042969
3415.820313	51796.585938
3414.559570	51952.363281
3413.297852	52006.578125
3412.036133	51837.929688
3410.774414	51979.652344
3409.512695	52019.882813
3408.250000	51964.656250
3406.987305	51525.804688
3405.724609	51460.761719
3404.460938	51828.890625
3403.197266	52053.828125
3401.933594	51305.496094
3400.669922	51621.773438
3399.405273	51560.722656
3398.140625	52011.753906
3396.875977	51948.648438
3395.610352	51334.054688
3394.344727	52215.218750
3393.079102	51414.429688
3391.813477	51757.906250
3390.546875	51318.300781
3389.280273	51407.988281
3388.013672	51747.257813
3386.746094	51719.929688
3385.478516	51209.410156
3384.210938	51896.941406
3382.943359	51996.265625
3381.674805	51656.199219
3380.406250	52002.843750
3379.136719	51465.105469
3377.868164	51582.210938
3376.598633	51543.058594
3375.329102	51739.160156
3374.058594	51690.097656
3372.789063	51704.277344
3371.517578	51232.476563
3370.247070	51471.898438
3368.975586	52202.890625
3367.705078	51306.828125
3366.432617	51313.156250
3365.161133	51220.808594
3363.888672	51588.175781
3362.616211	51136.820313
3361.343750	51539.523438
3360.070313	51346.640625
3358.796875	51636.753906
3357.523438	51246.855469
3356.249023	51188.121094
3354.974609	51801.101563
3353.700195	51190.847656
3352.425781	51321.164063
3351.150391	51557.710938
3349.875000	51050.238281
3348.599609	51353.628906
3347.323242	51320.496094
3346.046875	51183.136719
3344.770508	51511.835938
3343.494141	51547.476563
3342.216797	51486.792969
3340.939453	51573.500000
3339.661133	51471.570313
3338.383789	51230.234375
3337.105469	51293.359375
3335.827148	51193.507813
3334.547852	51227.160156
3333.268555	51794.535156
3331.989258	51804.480469
3330.709961	51628.085938
3329.429688	51275.281250
3328.149414	51328.453125
3326.869141	51610.925781
3325.587891	51716.898438
3324.306641	51442.734375
3323.025391	51781.777344
3321.744141	51746.625000
3320.461914	51758.468750
3319.179688	51239.835938
3317.896484	51435.738281
3316.614258	51876.113281
3315.331055	51958.316406
3314.047852	51680.632813
3312.763672	51514.515625
3311.479492	52218.351563
3310.195313	52167.484375
3308.911133	52056.062500
3307.625977	52059.937500
3306.340820	52284.500000
3305.054688	51761.113281
3303.769531	52272.593750
3302.483398	52096.839844
3301.197266	51868.472656
3299.910156	51778.714844
3298.623047	52595.914063
3297.335938	51837.191406
3296.048828	51833.257813
3294.760742	51996.941406
3293.472656	52296.949219
3292.184570	52310.433594
3290.895508	52294.687500
3289.606445	51936.222656
3288.317383	52173.648438
3287.028320	52087.855469
3285.738281	52327.074219
3284.448242	52394.972656
3283.157227	52126.335938
3281.867188	51822.808594
3280.576172	52485.683594
3279.284180	52742.003906
3277.993164	52724.195313
3276.701172	52642.273438
3275.409180	52702.183594
3274.116211	53136.863281
3272.823242	52619.976563
3271.530273	52757.476563
3270.237305	52677.550781
3268.943359	52619.000000
3267.649414	52771.906250
3266.355469	52738.558594
3265.060547	52676.136719
3263.765625	52807.585938
3262.470703	52018.410156
3261.174805	52609.140625
3259.879883	52777.300781
3258.583008	52705.230469
3257.287109	52782.277344
3255.990234	53041.250000
3254.693359	53089.144531
3253.396484	52854.507813
3252.098633	52521.316406
3250.800781	53014.109375
3249.502930	52878.250000
3248.205078	52568.460938
3246.906250	52915.929688
3245.607422	53027.500000
3244.307617	53185.375000
3243.007813	53347.039063
3241.708008	52940.917969
3240.408203	53251.199219
3239.107422	53065.304688
3237.806641	53107.183594
3236.505859	52795.996094
3235.204102	53044.285156
3233.902344	52802.660156
3232.600586	52950.570313
3231.298828	52847.843750
3229.996094	52841.507813
3228.693359	53087.542969
3227.389648	53138.925781
3226.086914	53043.925781
3224.783203	53183.843750
3223.478516	52975.304688
3222.173828	52997.777344
3220.870117	53168.371094
3219.564453	53183.082031
3218.259766	52851.640625
3216.954102	53139.410156
3215.648438	52569.777344
3214.341797	52690.281250
3213.035156	52660.871094
3211.728516	53376.730469
3210.421875	53001.500000
3209.114258	52864.503906
3207.806641	52921.429688
3206.499023	52742.281250
3205.190430	52872.105469
3203.881836	52965.417969
3202.573242	52928.277344
3201.263672	52599.726563
3199.954102	52867.449219
3198.644531	52732.605469
3197.333984	52570.996094
3196.024414	53158.406250
3194.713867	52682.695313
3193.402344	52946.230469
3192.090820	52832.550781
3190.779297	52512.238281
3189.467773	52303.035156
3188.155273	52816.972656
3186.842773	52529.378906
3185.530273	52454.136719
3184.216797	52881.648438
3182.903320	52871.320313
3181.589844	52582.046875
3180.276367	52503.019531
3178.961914	52775.410156
3177.646484	52774.644531
3176.332031	52424.550781
3175.016602	52166.218750
3173.701172	52322.027344
3172.385742	52313.714844
3171.069336	52740.210938
3169.752930	52224.625000
3168.436523	52170.574219
3167.119141	52310.925781
3165.801758	52355.945313
3164.484375	52496.175781
3163.166016	52432.566406
3161.847656	52542.242188
3160.529297	52116.964844
3159.209961	52318.000000
3157.890625	52442.832031
3156.571289	52190.957031
3155.251953	52213.054688
3153.931641	52109.644531
3152.611328	52675.386719
3151.290039	52178.515625
3149.968750	52130.269531
3148.647461	52499.941406
3147.326172	52740.296875
3146.003906	52357.769531
3144.681641	52296.214844
3143.359375	52111.328125
3142.036133	52328.757813
3140.712891	52151.527344
3139.389648	52467.449219
3138.065430	52009.644531
3136.742188	52312.175781
3135.416992	52152.144531
3134.092773	51958.078125
3132.767578	52184.621094
3131.442383	51937.601563
3130.116211	52287.101563
3128.790039	52204.843750
3127.463867	52393.246094
3126.137695	52384.781250
3124.810547	52003.667969
3123.483398	51806.171875
3122.156250	52079.550781
3120.828125	52252.609375
3119.500000	52092.972656
3118.170898	52069.441406
3116.842773	52076.136719
3115.513672	51867.535156
3114.183594	52187.683594
3112.854492	52209.429688
3111.524414	52444.410156
3110.194336	52592.488281
3108.863281	52936.664063
3107.532227	52637.597656
3106.201172	52738.375000
3104.869141	52173.707031
3103.537109	52732.468750
3102.205078	52754.000000
3100.873047	52875.351563
3099.540039	52674.613281
3098.207031	52897.582031
3096.873047	52431.515625
3095.539063	52306.281250
3094.205078	52421.921875
3092.871094	52770.742188
3091.536133	52314.523438
3090.201172	52430.062500
3088.866211	52581.253906
3087.530273	52640.289063
3086.194336	52603.472656
3084.857422	52472.750000
3083.521484	52635.035156
3082.184570	52752.179688
3080.846680	52608.359375
3079.509766	52492.750000
3078.171875	52829.332031
3076.833008	52520.519531
3075.495117	53089.453125
3074.156250	52825.707031
3072.817383	52751.390625
3071.477539	53263.632813
3070.137695	52670.289063
3068.797852	52650.359375
3067.457031	53360.738281
3066.116211	52938.136719
3064.775391	52878.835938
3063.434570	52946.804688
3062.092773	52771.531250
3060.750977	52431.742188
3059.408203	52636.250000
3058.065430	52700.449219
3056.722656	52633.781250
3055.378906	53071.656250
3054.036133	53214.148438
3052.691406	52781.316406
3051.347656	52837.906250
3050.002930	53435.843750
3048.658203	53333.597656
3047.313477	53042.937500
3045.967773	52993.054688
3044.622070	52857.398438
3043.275391	53182.359375
3041.929688	53238.722656
3040.582031	53503.785156
3039.235352	53166.878906
3037.887695	53282.800781
3036.540039	53167.718750
3035.192383	53708.097656
3033.843750	53071.734375
3032.495117	52698.082031
3031.146484	52698.585938
3029.796875	52992.992188
3028.447266	53032.472656
3027.097656	52817.199219
3025.747070	52776.757813
3024.396484	53024.382813
3023.044922	52692.199219
3021.694336	52519.914063
3020.342773	53096.109375
3018.990234	52654.585938
3017.638672	52861.082031
3016.286133	52698.175781
3014.932617	52587.289063
3013.580078	52717.585938
3012.226563	52812.582031
3010.872070	52720.273438
3009.518555	52763.308594
3008.164063	52463.496094
3006.808594	52752.968750
3005.454102	52966.355469
3004.098633	52679.652344
3002.743164	52622.648438
3001.386719	52606.382813
3000.030273	52545.710938
2998.673828	52707.066406
2997.316406	52764.761719
2995.958984	52236.246094
2994.601563	52233.003906
2993.243164	52192.796875
2991.884766	52182.167969
2990.526367	52136.437500
2989.166992	52539.527344
2987.807617	52270.296875
2986.448242	52213.484375
2985.087891	52241.593750
2983.727539	52033.500000
2982.367188	51884.535156
2981.005859	52298.136719
2979.644531	52466.304688
2978.283203	51823.296875
2976.921875	52199.742188
2975.559570	52364.109375
2974.196289	52263.140625
2972.833984	52421.878906
2971.470703	52611.835938
2970.106445	52510.863281
2968.743164	51994.019531
2967.378906	52194.968750
2966.013672	52290.964844
2964.649414	52289.445313
2963.284180	52315.500000
2961.917969	52256.984375
2960.552734	52573.371094
2959.186523	52354.968750
2957.819336	52423.207031
2956.453125	52469.367188
2955.085938	52309.882813
2953.717773	52535.910156
2952.350586	52570.984375
2950.982422	52484.957031
2949.613281	52644.734375
2948.245117	52727.417969
2946.875977	52652.394531
2945.505859	52419.781250
2944.136719	52522.597656
2942.766602	52762.750000
2941.395508	52599.859375
2940.025391	52665.921875
2938.654297	52935.136719
2937.282227	53476.914063
2935.910156	53017.570313
2934.538086	52893.199219
2933.166016	53109.046875
2931.792969	53233.363281
2930.419922	53046.863281
2929.046875	53151.019531
2927.672852	52886.054688
2926.298828	53081.519531
2924.923828	53289.667969
2923.549805	52911.648438
2922.173828	53760.406250
2920.798828	53097.769531
2919.422852	53205.347656
2918.046875	53223.492188
2916.670898	52849.566406
2915.293945	53236.039063
2913.916992	53467.398438
2912.539063	53545.574219
2911.161133	53419.667969
2909.783203	53690.867188
2908.404297	53350.109375
2907.026367	53477.367188
2905.646484	53065.835938
2904.267578	53538.804688
2902.887695	53653.175781
2901.507813	53352.820313
2900.126953	53728.996094
2898.746094	53583.273438
2897.365234	53595.722656
2895.983398	53588.175781
2894.601563	54156.453125
2893.219727	53356.968750
2891.836914	53683.539063
2890.454102	53833.875000
2889.071289	54187.382813
2887.687500	53742.429688
2886.303711	53774.722656
2884.919922	54108.019531
2883.535156	53440.402344
2882.150391	53378.480469
2880.765625	54282.414063
2879.379883	53511.960938
2877.994141	53714.480469
2876.608398	53462.402344
2875.221680	53434.917969
2873.834961	53311.515625
2872.447266	53631.480469
2871.059570	53649.183594
2869.671875	53482.398438
2868.284180	53507.347656
2866.895508	53152.671875
2865.506836	53616.835938
2864.117188	53298.425781
2862.727539	53697.289063
2861.337891	53290.519531
2859.947266	53376.832031
2858.556641	53475.730469
2857.166016	53303.890625
2855.775391	53280.066406
2854.383789	53047.019531
2852.991211	52938.503906
2851.599609	53053.589844
2850.207031	53155.996094
2848.813477	52997.062500
2847.419922	52674.265625
2846.026367	52879.332031
2844.632813	52976.253906
2843.238281	52956.113281
2841.843750	52853.187500
2840.449219	53155.152344
2839.053711	52573.718750
2837.658203	52855.808594
2836.261719	52314.277344
2834.865234	52434.503906
2833.468750	52010.140625
2832.072266	51934.531250
2830.674805	51776.332031
2829.276367	52054.578125
2827.878906	52293.187500
2826.480469	52111.660156
2825.082031	52229.898438
2823.682617	51748.863281
2822.283203	51983.703125
2820.882813	52087.523438
2819.483398	51542.324219
2818.083008	51816.457031
2816.681641	52004.437500
2815.281250	51597.582031
2813.878906	51554.484375
2812.477539	51996.628906
2811.075195	51744.003906
2809.672852	51729.519531
2808.269531	51543.273438
2806.866211	51730.960938
2805.462891	51582.351563
2804.059570	51626.898438
2802.655273	51851.949219
2801.250000	51942.859375
2799.845703	51594.222656
2798.440430	51767.304688
2797.034180	51715.296875
2795.628906	51545.484375
2794.222656	51491.761719
2792.815430	51859.171875
2791.408203	51643.046875
2790.000977	51851.500000
2788.593750	51644.390625
2787.185547	51610.289063
2785.777344	51652.835938
2784.368164	51798.695313
2782.958984	51750.316406
2781.549805	51791.000000
2780.140625	51363.406250
2778.730469	51357.875000
2777.319336	51765.195313
2775.909180	51958.816406
2774.497070	51627.628906
2773.085938	51481.535156
2771.673828	51634.175781
2770.261719	51772.519531
2768.849609	52214.640625
2767.436523	51532.027344
2766.023438	52050.351563
2764.609375	51838.640625
2763.195313	51808.093750
2761.781250	51637.355469
2760.367188	52220.765625
2758.952148	51977.269531
2757.536133	52049.554688
2756.121094	52128.894531
2754.705078	51727.828125
2753.288086	52034.023438
2751.871094	52047.738281
2750.454102	52109.265625
2749.037109	52080.445313
2747.619141	52122.445313
2746.201172	52100.707031
2744.782227	52172.753906
2743.363281	52027.167969
2741.944336	52288.425781
2740.524414	51665.472656
2739.104492	52147.644531
2737.684570	52475.816406
2736.263672	52395.683594
2734.842773	51918.144531
2733.421875	51892.921875
2732.000000	52268.480469
2730.578125	51886.625000
2729.155273	52161.406250
2727.733398	52451.921875
2726.309570	52211.390625
2724.886719	51447.261719
2723.462891	52122.035156
2722.038086	52176.082031
2720.614258	51988.695313
2719.189453	51887.718750
2717.763672	51756.843750
2716.338867	52043.320313
2714.912109	52088.488281
2713.486328	51575.761719
2712.059570	51853.253906
2710.632813	51921.289063
2709.205078	51917.183594
2707.777344	51726.714844
2706.349609	51785.925781
2704.920898	51820.500000
2703.492188	51939.378906
2702.063477	51685.843750
2700.633789	51736.207031
2699.204102	51509.171875
2697.774414	52022.871094
2696.343750	51915.179688
2694.912109	51681.238281
2693.481445	51599.980469
2692.049805	51906.234375
2690.618164	51816.187500
2689.185547	52052.128906
2687.752930	51604.675781
2686.319336	51733.695313
2684.886719	51888.917969
2683.453125	51658.906250
2682.018555	51968.074219
2680.583984	51493.175781
2679.149414	51947.421875
2677.713867	51936.218750
2676.278320	52122.597656
2674.842773	51838.648438
2673.406250	51692.898438
2671.969727	51451.121094
2670.533203	51971.042969
2669.095703	51608.808594
2667.658203	51877.015625
2666.219727	51689.519531
2664.781250	51477.683594
2663.342773	51586.949219
2661.903320	51572.320313
2660.463867	51287.421875
2659.024414	51332.136719
2657.583984	51303.621094
2656.143555	51435.417969
2654.703125	51300.625000
2653.261719	51308.699219
2651.820313	51353.328125
2650.377930	51232.562500
2648.935547	51237.152344
2647.493164	51081.671875
2646.049805	51496.773438
2644.606445	51751.675781
2643.162109	51608.339844
2641.718750	51529.375000
2640.273438	51700.660156
2638.829102	51823.214844
2637.383789	51761.609375
2635.938477	51724.335938
2634.492188	51808.585938
2633.045898	51729.660156
2631.598633	51223.960938
2630.152344	51547.625000
2628.705078	51860.722656
2627.256836	51735.031250
2625.808594	51361.539063
2624.360352	51613.781250
2622.911133	51683.988281
2621.461914	51428.550781
2620.012695	51912.593750
2618.562500	51761.082031
2617.112305	51874.425781
2615.661133	51797.386719
2614.210938	51556.054688
2612.758789	51631.304688
2611.307617	51751.464844
2609.855469	51814.519531
2608.402344	51716.832031
2606.950195	51926.699219
2605.496094	51428.312500
2604.042969	51641.593750
2602.588867	51701.117188
2601.134766	51527.613281
2599.679688	51204.078125
2598.224609	51719.054688
2596.769531	51193.847656
2595.313477	51270.625000
2593.857422	51238.765625
2592.401367	51215.535156
2590.944336	51604.066406
2589.486328	51324.105469
2588.029297	51312.906250
2586.571289	51611.585938
2585.112305	50923.917969
2583.654297	51418.691406
2582.195313	50987.722656
2580.735352	51146.855469
2579.275391	51101.300781
2577.815430	51097.019531
2576.354492	50962.128906
2574.893555	51255.097656
2573.432617	51209.539063
2571.970703	51230.972656
2570.508789	51494.453125
2569.045898	51057.531250
2567.583984	50929.683594
2566.120117	51047.210938
2564.657227	51420.214844
2563.193359	51036.882813
2561.728516	51109.707031
2560.263672	51184.207031
2558.798828	51068.484375
2557.333984	51088.136719
2555.868164	50595.750000
2554.402344	51040.074219
2552.935547	51004.929688
2551.468750	50885.953125
2550.000977	50751.632813
2548.534180	50655.003906
2547.065430	50628.519531
2545.597656	51053.332031
2544.128906	50283.343750
2542.659180	50420.980469
2541.190430	50626.867188
2539.720703	50525.261719
2538.250000	50462.968750
2536.779297	50711.343750
2535.308594	50577.359375
2533.836914	50759.035156
2532.365234	50821.230469
2530.893555	50637.855469
2529.420898	50865.390625
2527.948242	50900.226563
2526.475586	50413.679688
2525.001953	50491.187500
2523.527344	50631.660156
2522.053711	50494.546875
2520.579102	50396.648438
2519.103516	50545.531250
2517.627930	50320.066406
2516.152344	50337.925781
2514.675781	50452.687500
2513.199219	50558.886719
2511.722656	49993.730469
2510.245117	50400.714844
2508.767578	50291.105469
2507.290039	50308.914063
2505.811523	50134.859375
2504.333008	50339.394531
2502.853516	50360.554688
2501.374023	50403.750000
2499.893555	50443.531250
2498.414063	50191.640625
2496.932617	50673.882813
2495.452148	50400.019531
2493.970703	50219.480469
2492.488281	49927.230469
2491.006836	50300.648438
2489.524414	50184.589844
2488.041016	50378.328125
2486.557617	50345.214844
2485.074219	50181.851563
2483.589844	50130.191406
2482.105469	50322.039063
2480.621094	50468.140625
2479.135742	50010.828125
2477.650391	50168.750000
2476.164063	50397.531250
2474.677734	50079.046875
2473.191406	50334.738281
2471.704102	50279.730469
2470.216797	50155.558594
2468.728516	50085.429688
2467.240234	50271.687500
2465.751953	50169.519531
2464.262695	50148.312500
2462.773438	49924.875000
2461.283203	50178.359375
2459.793945	49976.917969
2458.302734	50105.636719
2456.812500	49931.242188
2455.321289	50381.375000
2453.829102	50100.976563
2452.336914	50012.500000
2450.844727	49855.105469
2449.351563	49965.132813
2447.858398	50370.953125
2446.365234	49773.265625
2444.871094	49935.296875
2443.376953	49678.996094
2441.882813	50091.175781
2440.387695	49918.898438
2438.891602	49691.316406
2437.395508	50153.500000
2435.899414	49959.515625
2434.403320	50320.753906
2432.906250	49531.585938
2431.409180	49850.835938
2429.911133	49938.648438
2428.413086	49751.644531
2426.914063	49794.203125
2425.416016	49895.347656
2423.916016	49688.394531
2422.416992	49761.046875
2420.916992	49239.648438
2419.416016	49608.464844
2417.915039	49687.761719
2416.414063	49738.585938
2414.912109	49796.070313
2413.410156	49788.339844
2411.908203	49722.136719
2410.405273	49445.507813
2408.902344	49329.320313
2407.398438	49276.625000
2405.894531	49250.660156
2404.390625	49067.851563
2402.885742	49569.078125
2401.380859	49289.546875
2399.875977	49120.195313
2398.370117	49207.625000
2396.863281	49000.042969
2395.356445	49172.414063
2393.849609	49153.152344
2392.342773	48745.910156
2390.834961	49196.210938
2389.327148	49619.644531
2387.818359	49344.031250
2386.309570	49384.605469
2384.799805	49155.750000
2383.290039	49286.125000
2381.780273	49030.804688
2380.269531	49214.308594
2378.758789	48792.996094
2377.248047	49125.941406
2375.736328	49380.667969
2374.223633	49037.644531
2372.711914	48912.203125
2371.199219	48473.234375
2369.685547	48742.777344
2368.171875	48843.027344
2366.658203	48724.375000
2365.143555	48927.332031
2363.628906	48755.683594
2362.114258	48943.609375
2360.598633	48848.222656
2359.083008	49234.714844
2357.566406	49293.238281
2356.049805	48707.960938
2354.532227	48786.437500
2353.014648	48992.234375
2351.497070	48850.648438
2349.978516	48664.496094
2348.459961	48567.687500
2346.941406	48741.914063
2345.421875	49048.199219
2343.902344	48518.652344
2342.381836	48435.167969
2340.861328	48355.027344
2339.340820	48685.832031
2337.819336	48605.656250
2336.296875	48537.066406
2334.775391	48300.304688
2333.252930	48947.289063
2331.729492	48857.222656
2330.206055	48655.152344
2328.682617	48308.222656
2327.158203	48531.277344
2325.633789	48579.691406
2324.109375	48591.863281
2322.583984	48261.742188
2321.057617	48295.367188
2319.532227	48547.718750
2318.005859	48600.976563
2316.478516	48266.242188
2314.951172	48569.343750
2313.423828	48344.863281
2311.895508	47849.464844
2310.367188	48086.738281
2308.838867	47665.531250
2307.309570	48208.007813
2305.779297	48234.949219
2304.250000	48092.902344
2302.718750	47926.324219
2301.188477	48343.542969
2299.657227	48004.855469
2298.125000	48074.402344
2296.593750	47640.921875
2295.061523	48013.539063
2293.528320	48081.378906
2291.995117	47833.214844
2290.461914	47869.960938
2288.927734	47736.507813
2287.393555	47879.578125
2285.858398	47901.550781
2284.323242	47681.527344
2282.788086	47925.832031
2281.251953	47866.050781
2279.715820	47378.261719
2278.178711	47506.476563
2276.641602	47420.710938
2275.103516	47721.882813
2273.566406	47544.703125
2272.027344	47189.761719
2270.489258	47498.902344
2268.950195	47295.812500
2267.410156	47580.300781
2265.870117	47739.128906
2264.330078	46929.941406
2262.789063	47592.238281
2261.248047	47198.812500
2259.706055	47240.324219
2258.165039	47221.582031
2256.622070	47420.914063
2255.079102	47441.175781
2253.536133	47371.957031
2251.993164	47040.964844
2250.449219	47379.933594
2248.904297	47226.257813
2247.359375	47269.265625
2245.814453	47211.531250
2244.269531	47054.757813
2242.723633	46891.566406
2241.176758	47114.773438
2239.629883	47224.265625
2238.083008	47020.585938
2236.535156	47280.875000
2234.987305	46817.835938
2233.439453	47377.937500
2231.890625	47381.855469
2230.340820	47074.679688
2228.791992	47669.902344
2227.242188	47184.664063
2225.691406	47292.226563
2224.140625	47032.312500
2222.589844	47123.667969
2221.038086	46914.074219
2219.486328	47047.453125
2217.933594	47137.101563
2216.380859	47294.589844
2214.828125	47001.117188
2213.274414	47216.714844
2211.719727	47075.234375
2210.166016	47122.753906
2208.611328	46926.476563
2207.055664	46722.222656
2205.500000	46835.937500
2203.944336	47020.566406
2202.387695	47247.027344
2200.831055	47146.070313
2199.273438	46983.914063
2197.715820	47084.500000
2196.158203	46869.269531
2194.599609	47050.355469
2193.041016	47385.917969
2191.481445	47172.375000
2189.921875	47039.406250
2188.362305	46819.617188
2186.801758	47328.593750
2185.240234	47121.703125
2183.679688	47233.230469
2182.117188	47307.730469
2180.555664	46814.976563
2178.993164	46727.292969
2177.430664	47376.796875
2175.867188	47350.015625
2174.302734	47331.265625
2172.739258	46876.035156
2171.174805	47075.597656
2169.609375	46995.976563
2168.043945	46959.683594
2166.478516	47187.914063
2164.912109	46792.585938
2163.345703	47160.125000
2161.779297	47176.671875
2160.211914	47028.257813
2158.643555	47108.859375
2157.075195	46882.105469
2155.506836	47036.300781
2153.937500	47335.988281
2152.368164	46959.003906
2150.798828	46634.976563
2149.228516	46936.117188
2147.657227	47275.453125
2146.086914	46964.363281
2144.515625	47244.406250
2142.943359	47136.277344
2141.371094	46731.265625
