#Wave		#Intensity
3550.240234	18038.613281
3549.007813	17906.171875
3547.776367	17694.562500
3546.543945	17764.107422
3545.311523	17917.107422
3544.078125	17662.873047
3542.844727	17813.791016
3541.611328	17698.060547
3540.377930	17657.656250
3539.143555	17910.175781
3537.909180	17951.083984
3536.674805	17819.150391
3535.440430	17758.417969
3534.205078	17801.359375
3532.969727	17886.951172
3531.734375	17911.558594
3530.499023	17763.515625
3529.262695	17948.554688
3528.026367	17965.007813
3526.790039	17934.765625
3525.552734	17981.650391
3524.315430	18000.107422
3523.078125	17961.759766
3521.840820	17994.404297
3520.602539	18152.744141
3519.364258	18027.214844
3518.125977	17842.962891
3516.886719	18252.482422
3515.648438	18003.431641
3514.409180	17993.480469
3513.168945	17894.433594
3511.929688	18196.281250
3510.689453	17904.943359
3509.449219	17994.173828
3508.208984	18269.496094
3506.967773	18123.964844
3505.726563	18277.796875
3504.485352	18192.978516
3503.243164	18312.361328
3502.001953	18191.187500
3500.758789	18451.957031
3499.516602	18151.009766
3498.274414	18250.091797
3497.031250	17945.275391
3495.788086	18395.634766
3494.543945	18232.201172
3493.300781	18379.605469
3492.056641	18268.699219
3490.811523	18242.554688
3489.567383	18206.339844
3488.322266	18297.158203
3487.077148	18633.859375
3485.832031	18498.824219
3484.585938	18512.947266
3483.339844	18603.611328
3482.093750	18651.941406
3480.847656	18168.658203
3479.600586	18198.937500
3478.353516	18362.041016
3477.106445	18468.728516
3475.858398	18553.236328
3474.610352	18609.546875
3473.362305	18535.117188
3472.114258	18593.412109
3470.865234	18472.783203
3469.616211	18579.294922
3468.367188	18613.425781
3467.117188	18436.617188
3465.868164	18645.486328
3464.617188	18535.003906
3463.367188	18306.128906
3462.117188	18478.755859
3460.866211	18675.386719
3459.614258	18741.529297
3458.363281	18524.832031
3457.111328	18617.042969
3455.859375	18546.818359
3454.607422	18657.019531
3453.354492	18795.224609
3452.102539	18841.207031
3450.848633	18538.626953
3449.595703	18826.960938
3448.341797	18708.716797
3447.087891	18796.705078
3445.833984	18634.486328
3444.580078	18714.443359
3443.325195	18714.347656
3442.070313	18568.246094
3440.814453	18786.130859
3439.559570	18891.966797
3438.303711	18897.818359
3437.046875	18957.619141
3435.791016	18807.619141
3434.534180	18655.683594
3433.277344	18871.253906
3432.020508	18917.023438
3430.762695	18872.947266
3429.504883	18856.828125
3428.247070	18912.539063
3426.988281	19089.906250
3425.730469	19017.900391
3424.471680	18866.169922
3423.211914	18822.150391
3421.953125	18887.763672
3420.693359	18879.619141
3419.432617	19102.564453
3418.172852	19052.548828
3416.912109	19080.210938
3415.651367	18707.703125
3414.390625	18840.916016
3413.128906	18868.599609
3411.867188	18971.869141
3410.605469	19102.939453
3409.343750	18967.474609
3408.081055	19024.919922
3406.818359	18951.146484
3405.554688	18793.937500
3404.291992	18970.589844
3403.028320	19141.201172
3401.764648	18944.328125
3400.500000	19007.646484
3399.236328	19074.906250
3397.971680	18840.462891
3396.706055	18991.062500
3395.441406	19058.273438
3394.175781	18911.250000
3392.909180	18913.009766
3391.643555	18926.660156
3390.376953	18975.978516
3389.110352	19047.072266
3387.843750	18767.466797
3386.576172	18666.248047
3385.308594	19044.296875
3384.041016	19101.445313
3382.773438	18802.273438
3381.504883	18918.812500
3380.236328	19163.902344
3378.966797	19124.037109
3377.698242	18959.597656
3376.428711	19161.009766
3375.158203	19010.466797
3373.888672	18901.492188
3372.618164	19096.849609
3371.347656	18948.390625
3370.077148	18961.945313
3368.805664	18981.416016
3367.534180	19006.798828
3366.262695	18955.193359
3364.990234	19075.281250
3363.717773	19104.564453
3362.445313	18903.068359
3361.172852	18888.990234
3359.899414	19020.806641
3358.625977	18856.906250
3357.352539	19010.341797
3356.078125	19063.230469
3354.803711	19149.578125
3353.529297	18832.181641
3352.254883	18822.066406
3350.979492	19046.189453
3349.704102	19036.025391
3348.428711	19159.654297
3347.152344	19064.880859
3345.875977	19225.808594
3344.599609	19160.552734
3343.322266	19344.972656
3342.044922	19303.296875
3340.767578	19153.570313
3339.490234	19194.457031
3338.211914	19076.242188
3336.933594	19124.978516
3335.655273	19195.285156
3334.375977	19136.021484
3333.097656	19343.646484
3331.817383	19048.957031
3330.538086	19331.035156
3329.257813	19193.349609
3327.977539	19302.744141
3326.697266	19208.242188
3325.416016	19284.267578
3324.134766	19307.357422
3322.853516	19381.361328
3321.572266	19212.505859
3320.290039	19306.070313
3319.007813	19119.687500
3317.724609	19422.619141
3316.442383	19204.986328
3315.159180	19239.779297
3313.875000	19378.201172
3312.591797	19534.156250
3311.307617	19553.207031
3310.023438	19746.179688
3308.738281	19505.306641
3307.454102	19502.857422
3306.167969	19353.933594
3304.882813	19533.101563
3303.596680	19337.382813
3302.310547	19557.453125
3301.024414	19430.107422
3299.738281	19435.466797
3298.451172	19327.705078
3297.164063	19403.277344
3295.875977	19630.871094
3294.587891	19823.277344
3293.299805	19688.234375
3292.011719	19368.181641
3290.722656	19439.753906
3289.433594	19526.869141
3288.144531	19374.486328
3286.855469	19673.726563
3285.565430	19848.289063
3284.275391	19812.658203
3282.984375	19566.980469
3281.694336	19974.792969
3280.402344	19810.837891
3279.111328	19948.230469
3277.819336	19836.820313
3276.528320	19871.169922
3275.235352	19804.498047
3273.943359	20100.998047
3272.650391	19997.410156
3271.357422	19981.216797
3270.063477	19759.322266
3268.770508	19894.519531
3267.476563	20147.974609
3266.181641	20065.816406
3264.887695	19944.916016
3263.592773	19876.406250
3262.296875	20063.736328
3261.001953	20086.289063
3259.706055	20004.226563
3258.410156	20050.017578
3257.113281	19921.529297
3255.816406	19824.068359
3254.519531	20057.587891
3253.222656	19911.763672
3251.924805	20118.070313
3250.626953	20154.089844
3249.329102	19996.736328
3248.030273	20026.962891
3246.732422	19775.005859
3245.432617	20149.199219
3244.133789	20227.658203
3242.833984	20219.169922
3241.534180	20089.035156
3240.234375	20074.785156
3238.933594	20085.630859
3237.632813	20260.482422
3236.331055	20365.802734
3235.030273	20094.978516
3233.728516	20260.058594
3232.426758	20263.126953
3231.124023	20179.460938
3229.821289	20305.863281
3228.518555	20260.750000
3227.215820	20019.199219
3225.912109	20432.458984
3224.608398	20454.720703
3223.303711	20344.166016
3222.000000	20389.523438
3220.695313	19938.513672
3219.389648	20243.595703
3218.084961	20281.248047
3216.779297	20376.554688
3215.473633	20500.648438
3214.166992	20432.519531
3212.860352	19943.683594
3211.553711	20403.910156
3210.246094	20602.763672
3208.939453	20237.089844
3207.631836	20059.683594
3206.323242	20371.691406
3205.015625	20363.160156
3203.707031	20172.414063
3202.397461	20497.595703
3201.088867	20443.023438
3199.779297	20516.894531
3198.468750	20402.931641
3197.159180	20520.839844
3195.848633	20745.953125
3194.538086	20593.710938
3193.226563	20497.056641
3191.916016	20478.923828
3190.603516	20435.917969
3189.291992	20553.642578
3187.979492	20520.199219
3186.666992	20630.193359
3185.354492	20449.529297
3184.041016	20469.648438
3182.727539	20451.535156
3181.414063	20433.427734
3180.099609	20468.808594
3178.785156	20645.488281
3177.470703	20520.425781
3176.156250	20345.789063
3174.840820	20545.267578
3173.525391	20731.296875
3172.208984	20369.794922
3170.893555	20510.003906
3169.576172	20499.527344
3168.259766	20267.941406
3166.942383	20455.712891
3165.625000	20311.880859
3164.307617	20564.314453
3162.989258	20182.474609
3161.670898	20440.527344
3160.352539	20641.355469
3159.033203	20273.076172
3157.714844	20622.248047
3156.394531	20490.007813
3155.075195	20652.593750
3153.754883	20432.945313
3152.434570	20663.894531
3151.113281	20508.955078
3149.791992	20464.281250
3148.470703	20412.029297
3147.149414	20513.621094
3145.827148	20702.501953
3144.504883	20458.507813
3143.182617	20491.695313
3141.859375	20773.408203
3140.536133	20766.667969
3139.212891	20539.943359
3137.888672	20628.054688
3136.564453	20613.763672
3135.240234	20859.101563
3133.915039	20437.414063
3132.589844	20658.048828
3131.264648	20497.937500
3129.939453	20580.240234
3128.613281	20412.644531
3127.287109	20574.406250
3125.959961	20429.589844
3124.632813	20729.349609
3123.305664	20679.115234
3121.978516	20638.355469
3120.650391	20659.988281
3119.322266	20488.853516
3117.993164	20631.423828
3116.665039	20369.705078
3115.335938	20397.037109
3114.005859	20590.498047
3112.676758	20515.833984
3111.346680	20680.865234
3110.015625	20776.009766
3108.685547	20590.060547
3107.354492	20473.968750
3106.022461	20859.431641
3104.691406	20698.089844
3103.359375	20755.419922
3102.027344	20718.517578
3100.694336	20773.927734
3099.361328	20759.632813
3098.028320	20933.611328
3096.695313	20781.876953
3095.361328	20888.017578
3094.027344	20826.666016
3092.692383	20737.126953
3091.357422	21087.660156
3090.022461	20783.773438
3088.687500	20978.119141
3087.351563	20854.796875
3086.015625	21186.175781
3084.678711	21008.386719
3083.342773	21134.884766
3082.005859	20979.716797
3080.667969	21040.464844
3079.331055	21341.375000
3077.993164	20993.025391
3076.654297	21012.458984
3075.315430	21153.767578
3073.976563	21115.031250
3072.637695	21158.781250
3071.298828	21262.470703
3069.958984	21141.300781
3068.618164	21042.660156
3067.278320	21185.619141
3065.937500	21161.894531
3064.595703	21306.625000
3063.254883	21150.023438
3061.913086	21111.349609
3060.571289	21160.597656
3059.228516	21346.318359
3057.885742	21337.531250
3056.542969	21323.138672
3055.200195	21575.949219
3053.856445	21471.833984
3052.511719	21463.015625
3051.167969	21181.585938
3049.823242	21337.111328
3048.478516	21468.298828
3047.132813	21209.451172
3045.788086	21680.111328
3044.441406	21443.712891
3043.095703	21364.044922
3041.749023	21284.414063
3040.402344	21450.822266
3039.055664	21797.882813
3037.708008	21429.466797
3036.360352	21375.958984
3035.011719	21663.201172
3033.663086	21624.550781
3032.314453	21539.390625
3030.965820	21681.259766
3029.616211	21531.015625
3028.266602	21661.656250
3026.916992	21662.083984
3025.566406	21487.781250
3024.215820	21722.400391
3022.865234	21468.271484
3021.513672	21411.152344
3020.162109	21439.484375
3018.809570	21657.171875
3017.458008	21629.742188
3016.105469	21806.449219
3014.751953	21749.308594
3013.399414	21447.353516
3012.045898	21659.205078
3010.691406	21346.289063
3009.336914	21773.064453
3007.982422	21697.457031
3006.627930	21514.431641
3005.272461	21514.855469
3003.916992	21552.310547
3002.561523	21697.121094
3001.205078	21530.917969
2999.848633	21725.621094
2998.492188	21698.234375
2997.134766	21556.185547
2995.777344	21593.564453
2994.419922	21688.230469
2993.061523	21707.074219
2991.703125	21546.673828
2990.344727	21356.789063
2988.985352	21737.677734
2987.625977	21516.445313
2986.266602	21647.900391
2984.906250	21685.166016
2983.545898	21775.921875
2982.185547	21632.357422
2980.824219	21747.052734
2979.462891	21736.312500
2978.101563	21821.427734
2976.739258	21832.785156
2975.376953	21908.621094
2974.014648	21971.523438
2972.651367	21817.087891
2971.288086	22065.931641
2969.924805	21872.888672
2968.560547	21753.544922
2967.196289	21816.398438
2965.832031	22022.687500
2964.466797	21877.642578
2963.101563	21850.328125
2961.736328	22144.679688
2960.370117	22008.890625
2959.003906	21987.068359
2957.637695	22024.029297
2956.270508	22024.244141
2954.903320	21769.275391
2953.535156	21934.732422
2952.167969	22094.601563
2950.799805	22037.919922
2949.430664	22320.566406
2948.062500	22036.484375
2946.692383	22238.328125
2945.323242	22421.746094
2943.953125	22212.962891
2942.583008	22350.496094
2941.212891	22326.798828
2939.841797	22632.683594
2938.470703	22519.228516
2937.099609	22360.072266
2935.727539	22610.832031
2934.355469	22574.283203
2932.982422	22561.523438
2931.609375	22762.679688
2930.236328	22623.751953
2928.863281	22680.425781
2927.489258	22950.828125
2926.115234	22839.345703
2924.740234	22811.916016
2923.366211	22835.617188
2921.990234	22662.177734
2920.615234	22724.220703
2919.239258	22476.087891
2917.863281	22839.085938
2916.486328	22507.162109
2915.109375	22622.039063
2913.732422	22886.310547
2912.355469	22928.150391
2910.977539	22789.617188
2909.599609	22631.115234
2908.220703	22754.916016
2906.841797	22758.507813
2905.462891	22783.935547
2904.083008	22938.533203
2902.703125	22943.890625
2901.323242	22991.072266
2899.942383	22930.955078
2898.561523	23043.548828
2897.180664	22872.587891
2895.798828	22936.082031
2894.416992	23084.914063
2893.035156	23102.921875
2891.652344	23126.365234
2890.269531	22971.914063
2888.886719	23191.355469
2887.502930	22926.291016
2886.119141	23047.689453
2884.735352	23114.625000
2883.350586	23063.687500
2881.965820	23049.021484
2880.581055	23409.447266
2879.195313	23075.861328
2877.809570	23271.287109
2876.422852	23229.414063
2875.036133	23113.339844
2873.649414	22935.785156
2872.262695	23183.517578
2870.875000	23071.148438
2869.487305	23168.617188
2868.098633	23020.140625
2866.709961	23151.914063
2865.321289	23158.925781
2863.931641	22949.125000
2862.541992	23046.492188
2861.152344	23149.226563
2859.761719	23237.466797
2858.371094	23174.042969
2856.980469	23195.460938
2855.588867	23144.703125
2854.197266	23104.787109
2852.805664	23091.937500
2851.413086	23427.027344
2850.020508	23304.160156
2848.627930	23172.337891
2847.234375	23065.800781
2845.840820	23097.988281
2844.447266	23243.595703
2843.052734	22861.689453
2841.658203	22917.294922
2840.262695	23156.392578
2838.867188	22774.781250
2837.471680	22736.843750
2836.075195	22680.941406
2834.679688	22750.890625
2833.282227	22774.078125
2831.885742	22763.117188
2830.488281	22676.718750
2829.089844	22739.408203
2827.692383	22766.156250
2826.293945	22530.841797
2824.894531	22740.654297
2823.496094	22652.562500
2822.096680	22376.189453
2820.696289	22342.017578
2819.296875	22411.833984
2817.895508	22594.525391
2816.495117	22433.101563
2815.093750	22544.037109
2813.692383	22285.992188
2812.290039	22516.867188
2810.888672	22357.402344
2809.485352	22555.929688
2808.083008	22732.886719
2806.679688	22600.308594
2805.276367	22550.054688
2803.872070	22778.722656
2802.467773	22703.419922
2801.063477	22574.544922
2799.658203	22677.974609
2798.252930	22695.623047
2796.847656	22632.904297
2795.441406	22695.177734
2794.035156	22586.083984
2792.627930	22366.412109
2791.220703	22571.408203
2789.813477	22597.958984
2788.406250	22280.373047
2786.998047	22807.876953
2785.589844	22622.269531
2784.180664	22825.158203
2782.771484	22785.695313
2781.362305	22986.658203
2779.952148	22888.416016
2778.541992	22856.080078
2777.131836	23033.736328
2775.720703	22818.132813
2774.309570	22848.080078
2772.897461	22929.580078
2771.486328	22995.035156
2770.074219	22920.050781
2768.661133	22893.076172
2767.248047	22933.615234
2765.834961	22942.164063
2764.420898	22982.667969
2763.006836	22527.892578
2761.592773	23045.859375
2760.177734	22901.779297
2758.762695	22979.492188
2757.347656	23216.767578
2755.931641	23081.609375
2754.515625	23168.074219
2753.099609	23252.724609
2751.682617	23231.033203
2750.265625	23166.841797
2748.847656	23534.738281
2747.430664	23160.697266
2746.011719	23114.263672
2744.593750	23193.476563
2743.174805	23334.564453
2741.754883	23394.226563
2740.335938	23225.771484
2738.916016	23322.546875
2737.495117	23159.488281
2736.075195	23418.771484
2734.653320	23552.513672
2733.232422	23142.285156
2731.810547	23191.281250
2730.388672	23432.640625
2728.965820	23426.833984
2727.542969	23410.441406
2726.120117	23522.806641
2724.697266	23490.525391
2723.273438	23229.085938
2721.848633	23225.087891
2720.423828	23383.189453
2718.999023	23486.603516
2717.574219	23220.130859
2716.148438	23230.212891
2714.722656	23641.621094
2713.295898	23405.218750
2711.870117	23325.513672
2710.442383	23249.363281
2709.015625	23164.455078
2707.587891	23396.037109
2706.159180	23592.347656
2704.731445	23328.179688
2703.301758	23501.568359
2701.873047	23279.699219
2700.443359	23298.494141
2699.013672	23426.111328
2697.583984	23497.503906
2696.153320	23468.847656
2694.721680	23457.746094
2693.291016	23800.890625
2691.859375	23558.277344
2690.426758	23354.347656
2688.995117	23665.710938
2687.562500	23481.119141
2686.128906	23526.064453
2684.695313	23455.414063
2683.261719	23561.611328
2681.828125	23636.248047
2680.393555	23805.332031
2678.958008	23694.439453
2677.523438	23767.230469
2676.087891	23621.429688
2674.651367	23694.197266
2673.215820	23335.279297
2671.778320	23528.630859
2670.341797	23400.490234
2668.904297	23663.574219
2667.466797	23704.806641
2666.028320	23908.335938
2664.589844	23612.703125
2663.151367	23819.638672
2661.711914	23785.783203
2660.272461	23786.816406
2658.833008	23472.326172
2657.392578	23616.337891
2655.952148	23845.652344
2654.510742	23968.593750
2653.069336	23535.941406
2651.627930	23585.769531
2650.185547	23865.328125
2648.743164	23697.525391
2647.300781	23684.638672
2645.857422	23567.396484
2644.414063	23799.722656
2642.970703	24085.822266
2641.526367	23841.689453
2640.082031	23800.968750
2638.636719	23914.869141
2637.191406	24013.082031
2635.746094	23665.027344
2634.299805	23929.884766
2632.853516	23897.859375
2631.406250	24016.785156
2629.959961	23885.882813
2628.511719	23933.650391
2627.064453	23965.791016
2625.616211	24148.701172
2624.167969	23962.437500
2622.718750	24384.312500
2621.269531	23896.728516
2619.819336	24223.173828
2618.370117	24343.460938
2616.918945	24205.826172
2615.468750	24525.019531
2614.017578	24205.781250
2612.566406	24063.089844
2611.114258	24262.781250
2609.662109	24424.343750
2608.209961	24131.363281
2606.756836	24094.203125
2605.303711	24196.957031
2603.849609	24349.732422
2602.395508	24060.505859
2600.941406	24104.505859
2599.486328	24255.455078
2598.031250	24047.537109
2596.576172	24339.830078
2595.120117	24192.332031
2593.664063	24272.427734
2592.207031	24254.257813
2590.750000	24416.986328
2589.292969	24338.501953
2587.834961	24217.007813
2586.376953	24152.378906
2584.918945	24103.271484
2583.459961	24258.939453
2582.000977	24390.443359
2580.541016	24351.623047
2579.081055	24372.996094
2577.621094	24299.818359
2576.161133	24147.625000
2574.699219	24139.820313
2573.238281	24408.546875
2571.776367	24337.140625
2570.314453	24203.966797
2568.851563	24331.732422
2567.389648	24677.343750
2565.925781	24465.267578
2564.462891	24404.214844
2562.998047	24624.376953
2561.534180	24631.875000
2560.069336	24545.113281
2558.604492	24580.033203
2557.138672	24323.755859
2555.672852	24223.429688
2554.207031	24438.154297
2552.740234	24390.904297
2551.273438	24299.187500
2549.806641	24074.082031
2548.338867	24598.167969
2546.871094	24605.628906
2545.402344	24387.447266
2543.933594	24239.439453
2542.464844	24634.806641
2540.995117	24341.621094
2539.525391	24265.451172
2538.054688	24518.806641
2536.583984	24739.603516
2535.113281	24380.130859
2533.641602	24186.310547
2532.169922	24255.228516
2530.698242	24462.218750
2529.225586	24433.863281
2527.752930	24390.185547
2526.279297	24072.220703
2524.805664	24285.851563
2523.332031	24414.226563
2521.857422	24249.712891
2520.382813	24413.769531
2518.908203	24252.736328
2517.432617	24632.751953
2515.956055	24485.345703
2514.480469	24628.763672
2513.003906	24471.230469
2511.526367	24347.761719
2510.049805	24295.712891
2508.571289	24722.683594
2507.093750	24516.031250
2505.615234	24772.953125
2504.135742	24810.794922
2502.657227	24560.152344
2501.177734	24348.650391
2499.697266	24376.386719
2498.216797	24497.363281
2496.736328	24662.349609
2495.254883	24388.322266
2493.773438	24560.025391
2492.291992	24563.947266
2490.809570	24544.158203
2489.327148	24724.146484
2487.843750	24728.017578
2486.360352	25060.152344
2484.876953	24832.169922
2483.392578	24507.900391
2481.908203	24630.169922
2480.423828	24563.050781
2478.938477	24614.261719
2477.453125	24702.611328
2475.966797	24882.126953
2474.480469	24928.142578
2472.993164	24901.539063
2471.506836	24797.306641
2470.018555	24893.923828
2468.531250	24759.376953
2467.042969	25098.808594
2465.553711	24743.394531
2464.065430	24954.541016
2462.576172	25008.851563
2461.085938	24869.380859
2459.595703	25033.164063
2458.105469	25144.660156
2456.614258	25040.607422
2455.123047	25133.525391
2453.630859	25048.031250
2452.139648	25299.025391
2450.646484	25309.390625
2449.154297	25037.279297
2447.661133	25168.728516
2446.166992	24848.050781
2444.672852	25120.605469
2443.178711	25115.873047
2441.683594	25190.066406
2440.188477	25141.666016
2438.693359	25012.726563
2437.197266	25088.558594
2435.701172	25233.126953
2434.205078	25209.912109
2432.708008	25153.171875
2431.209961	24789.710938
2429.712891	24907.384766
2428.213867	25033.375000
2426.715820	24959.978516
2425.216797	25214.824219
2423.717773	25144.761719
2422.217773	25099.839844
2420.717773	25304.248047
2419.216797	25157.261719
2417.715820	25077.244141
2416.214844	25169.472656
2414.713867	25178.078125
2413.210938	25317.021484
2411.708984	25255.410156
2410.206055	25192.158203
2408.703125	25035.427734
2407.199219	25147.544922
2405.695313	25463.214844
2404.191406	25077.939453
2402.686523	25378.447266
2401.181641	25415.306641
2399.675781	25268.748047
2398.169922	25357.283203
2396.664063	25275.798828
2395.157227	25104.392578
2393.650391	25306.150391
2392.142578	25149.804688
2390.634766	25153.345703
2389.126953	25319.978516
2387.618164	25338.445313
2386.109375	25200.539063
2384.599609	25238.974609
2383.089844	25089.523438
2381.580078	25315.783203
2380.069336	25197.955078
2378.558594	25405.792969
2377.047852	25126.894531
2375.536133	25347.923828
2374.023438	25283.316406
2372.511719	25349.847656
2370.998047	25089.490234
2369.485352	25391.568359
2367.971680	25597.308594
2366.458008	25355.318359
2364.943359	25242.728516
2363.428711	25261.099609
2361.913086	25481.560547
2360.397461	25239.837891
2358.881836	25413.826172
2357.365234	25387.431641
2355.848633	25481.851563
2354.332031	25428.976563
2352.814453	25554.761719
2351.295898	25369.599609
2349.778320	25427.548828
2348.258789	25640.826172
2346.740234	25439.255859
2345.220703	25540.083984
2343.701172	25201.566406
2342.180664	25498.875000
2340.660156	25393.273438
2339.138672	25342.183594
2337.617188	25498.988281
2336.095703	25576.539063
2334.573242	25591.390625
2333.050781	25439.732422
2331.528320	25634.246094
2330.004883	25556.794922
2328.480469	25551.857422
2326.957031	25268.611328
2325.431641	25364.175781
2323.907227	25370.808594
2322.381836	25490.976563
2320.856445	25337.990234
2319.330078	25703.158203
2317.803711	25569.923828
2316.276367	25463.056641
2314.749023	25648.769531
2313.221680	25617.509766
2311.693359	25497.566406
2310.165039	25535.326172
2308.635742	25361.283203
2307.106445	25477.837891
2305.577148	25671.449219
2304.046875	25472.892578
2302.516602	25638.519531
2300.985352	25702.404297
2299.454102	25594.140625
2297.922852	25533.453125
2296.390625	25523.583984
2294.858398	25253.289063
2293.325195	25726.550781
2291.791992	25385.945313
2290.258789	25448.125000
2288.724609	25670.621094
2287.190430	25582.199219
2285.655273	25593.576172
2284.120117	25457.800781
2282.583984	25330.265625
2281.048828	25465.884766
2279.511719	25756.632813
2277.975586	25442.919922
2276.438477	25638.812500
2274.900391	25480.367188
2273.362305	25712.048828
2271.824219	25421.503906
2270.285156	25377.410156
2268.746094	25400.197266
2267.206055	25599.044922
2265.666016	25413.132813
2264.125977	25633.050781
2262.584961	25556.367188
2261.043945	25668.640625
2259.502930	25727.123047
2257.960938	25720.460938
2256.417969	25691.017578
2254.875000	25822.654297
2253.332031	25702.111328
2251.789063	25726.347656
2250.245117	25770.080078
2248.700195	25691.892578
2247.155273	25564.998047
2245.610352	25834.521484
2244.064453	25850.562500
2242.518555	25637.669922
2240.972656	25809.568359
2239.425781	25660.078125
2237.877930	25985.996094
2236.331055	26134.958984
2234.783203	25852.533203
2233.234375	25686.966797
2231.685547	25762.955078
2230.136719	26056.007813
2228.586914	25817.621094
2227.037109	25812.541016
2225.486328	25815.556641
2223.935547	25876.833984
2222.384766	25836.138672
2220.833008	25782.519531
2219.281250	25921.378906
2217.728516	25951.837891
2216.175781	25979.042969
2214.622070	26120.968750
2213.068359	26169.115234
2211.514648	25939.425781
2209.959961	26016.654297
2208.405273	26014.738281
2206.850586	25904.689453
2205.294922	26093.189453
2203.738281	26081.570313
2202.181641	26194.126953
2200.625000	26076.076172
2199.068359	25804.962891
2197.510742	25646.783203
2195.952148	26186.232422
2194.393555	26095.675781
2192.834961	26190.328125
2191.275391	26336.439453
2189.715820	26279.701172
2188.155273	26377.441406
2186.595703	26415.615234
2185.034180	26363.718750
2183.472656	26149.476563
2181.911133	26353.214844
2180.349609	26185.677734
2178.787109	26501.742188
2177.223633	26438.634766
2175.660156	26043.214844
2174.096680	26259.544922
2172.532227	26284.800781
2170.967773	26354.960938
2169.403320	26542.164063
2167.837891	26174.478516
2166.271484	26717.496094
2164.705078	26319.501953
2163.138672	26370.322266
2161.572266	26570.080078
2160.003906	26427.041016
2158.436523	26405.746094
2156.868164	26328.441406
2155.299805	26585.595703
2153.730469	26306.718750
2152.161133	26333.445313
2150.590820	26342.568359
2149.020508	26316.519531
2147.450195	26651.630859
2145.878906	26635.093750
2144.307617	26485.998047
2142.735352	26619.605469
2141.163086	26524.861328
