#Wave		#Intensity
3550.405273	64305.554688
3549.173828	64560.257813
3547.941406	64821.503906
3546.708984	64280.148438
3545.476563	64451.730469
3544.243164	64759.636719
3543.010742	64448.625000
3541.777344	64613.933594
3540.542969	64768.992188
3539.309570	64923.976563
3538.075195	64619.265625
3536.840820	64841.296875
3535.605469	64654.628906
3534.371094	64646.882813
3533.135742	64423.742188
3531.900391	64631.375000
3530.664063	64548.464844
3529.428711	64384.359375
3528.192383	64926.835938
3526.955078	64555.660156
3525.718750	64466.722656
3524.481445	64596.937500
3523.244141	64741.289063
3522.006836	65094.460938
3520.768555	65271.070313
3519.530273	65007.699219
3518.291992	64699.843750
3517.053711	64645.402344
3515.814453	64929.300781
3514.575195	65196.863281
3513.335938	64931.726563
3512.095703	65278.117188
3510.855469	65083.910156
3509.615234	65175.117188
3508.375000	65003.257813
3507.133789	65173.316406
3505.892578	65399.925781
3504.651367	65209.906250
3503.410156	64846.113281
3502.167969	65131.234375
3500.925781	65396.015625
3499.683594	65274.820313
3498.440430	65367.765625
3497.197266	65499.027344
3495.954102	65377.863281
3494.710938	65569.609375
3493.466797	65682.554688
3492.222656	65135.703125
3490.978516	65732.796875
3489.734375	65553.195313
3488.489258	65736.585938
3487.244141	65147.832031
3485.999023	65700.039063
3484.752930	65893.335938
3483.506836	65595.000000
3482.260742	65451.863281
3481.014648	65588.687500
3479.767578	65735.507813
3478.520508	66051.328125
3477.273438	65938.375000
3476.025391	65976.359375
3474.777344	65756.851563
3473.529297	65255.886719
3472.281250	65615.664063
3471.032227	66039.601563
3469.784180	65792.109375
3468.534180	65824.000000
3467.285156	65898.054688
3466.035156	66219.109375
3464.785156	65799.070313
3463.535156	65822.875000
3462.284180	65963.070313
3461.033203	66155.375000
3459.782227	65852.046875
3458.531250	65625.062500
3457.279297	66180.257813
3456.027344	66023.460938
3454.775391	66089.218750
3453.522461	65938.507813
3452.270508	66378.914063
3451.016602	65753.445313
3449.763672	65642.937500
3448.509766	65774.742188
3447.255859	65548.164063
3446.001953	65878.054688
3444.748047	66355.867188
3443.493164	65915.226563
3442.238281	66608.820313
3440.983398	66278.281250
3439.727539	66497.664063
3438.471680	66013.375000
3437.215820	65888.984375
3435.958984	65906.500000
3434.703125	65999.898438
3433.446289	65893.546875
3432.188477	66657.750000
3430.931641	66221.921875
3429.673828	65973.875000
3428.416016	66021.234375
3427.157227	66180.265625
3425.898438	66500.773438
3424.639648	65901.921875
3423.380859	66122.656250
3422.121094	66048.304688
3420.862305	66205.132813
3419.601563	65746.296875
3418.341797	66024.601563
3417.081055	65309.113281
3415.820313	65750.625000
3414.559570	65815.750000
3413.297852	65677.851563
3412.036133	66276.148438
3410.774414	66307.273438
3409.512695	66079.851563
3408.250000	65977.781250
3406.987305	65531.851563
3405.724609	65378.261719
3404.460938	65512.832031
3403.197266	66046.617188
3401.933594	65898.953125
3400.669922	65330.394531
3399.405273	65524.382813
3398.140625	65507.898438
3396.875977	66070.820313
3395.610352	65246.781250
3394.344727	65250.183594
3393.079102	65562.914063
3391.813477	65538.476563
3390.546875	65240.503906
3389.280273	65337.011719
3388.013672	65889.140625
3386.746094	65214.929688
3385.478516	65669.796875
3384.210938	65085.003906
3382.943359	65418.937500
3381.674805	65380.656250
3380.406250	65518.480469
3379.136719	65424.792969
3377.868164	64921.757813
3376.598633	65441.179688
3375.329102	65926.757813
3374.058594	65151.183594
3372.789063	65012.199219
3371.517578	64954.261719
3370.247070	65194.582031
3368.975586	65503.894531
3367.705078	64719.371094
3366.432617	65085.875000
3365.161133	64854.304688
3363.888672	65041.070313
3362.616211	65083.761719
3361.343750	64927.257813
3360.070313	64613.093750
3358.796875	65367.394531
3357.523438	65214.851563
3356.249023	65038.726563
3354.974609	65045.859375
3353.700195	64558.679688
3352.425781	64798.234375
3351.150391	64657.761719
3349.875000	64834.195313
3348.599609	65215.171875
3347.323242	65151.398438
3346.046875	65168.277344
3344.770508	65065.203125
3343.494141	65233.445313
3342.216797	65415.367188
3340.939453	64608.839844
3339.661133	65270.136719
3338.383789	64444.347656
3337.105469	65450.968750
3335.827148	65047.578125
3334.547852	64591.363281
3333.268555	64696.562500
3331.989258	65343.175781
3330.709961	65165.703125
3329.429688	65123.605469
3328.149414	65487.351563
3326.869141	65360.902344
3325.587891	64960.156250
3324.306641	64980.808594
3323.025391	65034.746094
3321.744141	65315.816406
3320.461914	65543.890625
3319.179688	65051.515625
3317.896484	65379.335938
3316.614258	65063.296875
3315.331055	65639.382813
3314.047852	65636.320313
3312.763672	65476.832031
3311.479492	65395.601563
3310.195313	65822.531250
3308.911133	65768.601563
3307.625977	65331.804688
3306.340820	65533.839844
3305.054688	65442.886719
3303.769531	65396.867188
3302.483398	65600.679688
3301.197266	65779.031250
3299.910156	65651.007813
3298.623047	65544.492188
3297.335938	65344.421875
3296.048828	65842.351563
3294.760742	65765.078125
3293.472656	65740.453125
3292.184570	65721.664063
3290.895508	65595.757813
3289.606445	65689.945313
3288.317383	65842.484375
3287.028320	65124.906250
3285.738281	66053.929688
3284.448242	66079.804688
3283.157227	65656.343750
3281.867188	65964.257813
3280.576172	66435.335938
3279.284180	66153.953125
3277.993164	65907.671875
3276.701172	66586.312500
3275.409180	65974.851563
3274.116211	66072.492188
3272.823242	65935.148438
3271.530273	66387.960938
3270.237305	66058.476563
3268.943359	66348.054688
3267.649414	66474.562500
3266.355469	66100.648438
3265.060547	66190.296875
3263.765625	66524.148438
3262.470703	65912.078125
3261.174805	66267.132813
3259.879883	66410.875000
3258.583008	66821.804688
3257.287109	66305.078125
3255.990234	66545.476563
3254.693359	66423.843750
3253.396484	66199.710938
3252.098633	66060.789063
3250.800781	66109.531250
3249.502930	66334.195313
3248.205078	66556.812500
3246.906250	66402.445313
3245.607422	66708.031250
3244.307617	66451.296875
3243.007813	66186.945313
3241.708008	66276.078125
3240.408203	66637.359375
3239.107422	66444.539063
3237.806641	66433.187500
3236.505859	66346.593750
3235.204102	66819.367188
3233.902344	66464.671875
3232.600586	67554.101563
3231.298828	66704.046875
3229.996094	66390.070313
3228.693359	66151.359375
3227.389648	66215.156250
3226.086914	66662.117188
3224.783203	66554.406250
3223.478516	66465.984375
3222.173828	66362.203125
3220.870117	66583.593750
3219.564453	66337.484375
3218.259766	66372.234375
3216.954102	66014.757813
3215.648438	66247.531250
3214.341797	66157.351563
3213.035156	66276.617188
3211.728516	66616.710938
3210.421875	66509.195313
3209.114258	65929.437500
3207.806641	66098.523438
3206.499023	66593.750000
3205.190430	66685.851563
3203.881836	66386.593750
3202.573242	66221.710938
3201.263672	66216.031250
3199.954102	66256.343750
3198.644531	65915.281250
3197.333984	66149.140625
3196.024414	66367.562500
3194.713867	66168.390625
3193.402344	66256.500000
3192.090820	66005.757813
3190.779297	66042.179688
3189.467773	65827.937500
3188.155273	66281.359375
3186.842773	66086.273438
3185.530273	66222.031250
3184.216797	66128.343750
3182.903320	65644.828125
3181.589844	65455.773438
3180.276367	65654.562500
3178.961914	66049.945313
3177.646484	66254.218750
3176.332031	65677.671875
3175.016602	65635.734375
3173.701172	65881.914063
3172.385742	65384.035156
3171.069336	65599.632813
3169.752930	65134.449219
3168.436523	65754.101563
3167.119141	65656.890625
3165.801758	65020.523438
3164.484375	65456.878906
3163.166016	65714.007813
3161.847656	65898.664063
3160.529297	65080.058594
3159.209961	65110.609375
3157.890625	65131.625000
3156.571289	65044.199219
3155.251953	65183.113281
3153.931641	65221.187500
3152.611328	65491.144531
3151.290039	65468.300781
3149.968750	65086.359375
3148.647461	65226.968750
3147.326172	65506.140625
3146.003906	65771.882813
3144.681641	65441.453125
3143.359375	65200.363281
3142.036133	65380.589844
3140.712891	65314.128906
3139.389648	65166.144531
3138.065430	64737.609375
3136.742188	65675.976563
3135.416992	65101.585938
3134.092773	64821.128906
3132.767578	65084.445313
3131.442383	64578.750000
3130.116211	64948.015625
3128.790039	65199.742188
3127.463867	64961.187500
3126.137695	65199.535156
3124.810547	64985.671875
3123.483398	65108.527344
3122.156250	64906.113281
3120.828125	64900.375000
3119.500000	65198.894531
3118.170898	64938.011719
3116.842773	65251.480469
3115.513672	65030.351563
3114.183594	65464.472656
3112.854492	65094.261719
3111.524414	65480.972656
3110.194336	65435.433594
3108.863281	65163.554688
3107.532227	65204.843750
3106.201172	65538.343750
3104.869141	64883.964844
3103.537109	65004.421875
3102.205078	65124.812500
3100.873047	65657.656250
3099.540039	65431.320313
3098.207031	65487.492188
3096.873047	65125.757813
3095.539063	65208.308594
3094.205078	65176.046875
3092.871094	65115.578125
3091.536133	64991.191406
3090.201172	65192.113281
3088.866211	64988.804688
3087.530273	65356.867188
3086.194336	65756.687500
3084.857422	65602.210938
3083.521484	65303.199219
3082.184570	65890.468750
3080.846680	65448.867188
3079.509766	65332.109375
3078.171875	65566.234375
3076.833008	65224.406250
3075.495117	65619.695313
3074.156250	65682.960938
3072.817383	65491.273438
3071.477539	65380.246094
3070.137695	65688.921875
3068.797852	65205.160156
3067.457031	65313.347656
3066.116211	65500.109375
3064.775391	65606.296875
3063.434570	65873.343750
3062.092773	65592.125000
3060.750977	65451.300781
3059.408203	65579.804688
3058.065430	65596.078125
3056.722656	65427.296875
3055.378906	65639.781250
3054.036133	65549.515625
3052.691406	65341.628906
3051.347656	65856.453125
3050.002930	65870.726563
3048.658203	65776.734375
3047.313477	65809.664063
3045.967773	65706.390625
3044.622070	65739.304688
3043.275391	66031.375000
3041.929688	65736.093750
3040.582031	65713.039063
3039.235352	65922.906250
3037.887695	65834.609375
3036.540039	65686.757813
3035.192383	65592.953125
3033.843750	65804.484375
3032.495117	65545.054688
3031.146484	65683.914063
3029.796875	65456.242188
3028.447266	65797.757813
3027.097656	65408.394531
3025.747070	65952.359375
3024.396484	65347.554688
3023.044922	65558.679688
3021.694336	65203.152344
3020.342773	64946.214844
3018.990234	65523.023438
3017.638672	65479.582031
3016.286133	64970.351563
3014.932617	64967.863281
3013.580078	65321.507813
3012.226563	65024.066406
3010.872070	65171.718750
3009.518555	65133.937500
3008.164063	65238.859375
3006.808594	64786.070313
3005.454102	64763.207031
3004.098633	64869.968750
3002.743164	64748.960938
3001.386719	64692.785156
3000.030273	64581.117188
2998.673828	64758.093750
2997.316406	64459.640625
2995.958984	64701.269531
2994.601563	64868.832031
2993.243164	64439.316406
2991.884766	64398.042969
2990.526367	64238.550781
2989.166992	64474.367188
2987.807617	64630.667969
2986.448242	64382.601563
2985.087891	64644.035156
2983.727539	64499.398438
2982.367188	64063.359375
2981.005859	64551.507813
2979.644531	64998.847656
2978.283203	64397.078125
2976.921875	64409.289063
2975.559570	64240.925781
2974.196289	64837.093750
2972.833984	64339.039063
2971.470703	64527.980469
2970.106445	63984.210938
2968.743164	64022.226563
2967.378906	63574.496094
2966.013672	64333.632813
2964.649414	64251.984375
2963.284180	64128.085938
2961.917969	64432.511719
2960.552734	64439.085938
2959.186523	63841.207031
2957.819336	63936.070313
2956.453125	64289.804688
2955.085938	64268.839844
2953.717773	64475.472656
2952.350586	64537.039063
2950.982422	65147.097656
2949.613281	64524.328125
2948.245117	64422.617188
2946.875977	64636.265625
2945.505859	64913.949219
2944.136719	64537.343750
2942.766602	64514.472656
2941.395508	64564.863281
2940.025391	65184.671875
2938.654297	65308.089844
2937.282227	65047.105469
2935.910156	64573.996094
2934.538086	64748.667969
2933.166016	65022.003906
2931.792969	65150.757813
2930.419922	65111.277344
2929.046875	65128.457031
2927.672852	64961.089844
2926.298828	65204.785156
2924.923828	65296.781250
2923.549805	65239.019531
2922.173828	65210.480469
2920.798828	64961.140625
2919.422852	64491.164063
2918.046875	64915.148438
2916.670898	64523.808594
2915.293945	64943.921875
2913.916992	65159.691406
2912.539063	65182.191406
2911.161133	64896.800781
2909.783203	65110.578125
2908.404297	65537.296875
2907.026367	65139.132813
2905.646484	64979.578125
2904.267578	64992.953125
2902.887695	65428.347656
2901.507813	65119.687500
2900.126953	65003.902344
2898.746094	65180.832031
2897.365234	65357.667969
2895.983398	65563.484375
2894.601563	65780.093750
2893.219727	65889.437500
2891.836914	65577.507813
2890.454102	65294.765625
2889.071289	65264.398438
2887.687500	65212.269531
2886.303711	65506.597656
2884.919922	65536.023438
2883.535156	65124.878906
2882.150391	65418.996094
2880.765625	65821.687500
2879.379883	65224.152344
2877.994141	65262.632813
2876.608398	65223.222656
2875.221680	65491.578125
2873.834961	65459.359375
2872.447266	65096.023438
2871.059570	65181.484375
2869.671875	65019.128906
2868.284180	64820.683594
2866.895508	65186.316406
2865.506836	64798.152344
2864.117188	64706.484375
2862.727539	65102.566406
2861.337891	64808.593750
2859.947266	64753.078125
2858.556641	65156.062500
2857.166016	64795.500000
2855.775391	64700.316406
2854.383789	64965.914063
2852.991211	64598.429688
2851.599609	64499.738281
2850.207031	64923.777344
2848.813477	64576.375000
2847.419922	64481.339844
2846.026367	64724.949219
2844.632813	64204.968750
2843.238281	64558.324219
2841.843750	64430.964844
2840.449219	64456.605469
2839.053711	63849.023438
2837.658203	63567.250000
2836.261719	63754.878906
2834.865234	63485.832031
2833.468750	63741.667969
2832.072266	63620.074219
2830.674805	63476.972656
2829.276367	63685.914063
2827.878906	63851.656250
2826.480469	63103.699219
2825.082031	62966.222656
2823.682617	63340.109375
2822.283203	63141.644531
2820.882813	62833.890625
2819.483398	63069.476563
2818.083008	62971.574219
2816.681641	63085.148438
2815.281250	63207.621094
2813.878906	63306.742188
2812.477539	62906.253906
2811.075195	62688.542969
2809.672852	62984.558594
2808.269531	62901.113281
2806.866211	62620.937500
2805.462891	62768.300781
2804.059570	63389.375000
2802.655273	62555.160156
2801.250000	62684.542969
2799.845703	62753.113281
2798.440430	62766.269531
2797.034180	63084.769531
2795.628906	62697.929688
2794.222656	63084.101563
2792.815430	62435.136719
2791.408203	62560.710938
2790.000977	62664.816406
2788.593750	62604.824219
2787.185547	62678.550781
2785.777344	62705.898438
2784.368164	62907.835938
2782.958984	62806.843750
2781.549805	62980.148438
2780.140625	63231.703125
2778.730469	63292.667969
2777.319336	62675.585938
2775.909180	62855.843750
2774.497070	63075.136719
2773.085938	62867.539063
2771.673828	62834.261719
2770.261719	63176.015625
2768.849609	63032.496094
2767.436523	62977.867188
2766.023438	62628.433594
2764.609375	63117.250000
2763.195313	62872.675781
2761.781250	62807.464844
2760.367188	62722.757813
2758.952148	62840.308594
2757.536133	63230.902344
2756.121094	62665.660156
2754.705078	63100.402344
2753.288086	63015.695313
2751.871094	63010.753906
2750.454102	63050.085938
2749.037109	63200.949219
2747.619141	63033.074219
2746.201172	63189.164063
2744.782227	63338.093750
2743.363281	63509.941406
2741.944336	63103.367188
2740.524414	63301.695313
2739.104492	63123.398438
2737.684570	63104.234375
2736.263672	63284.726563
2734.842773	62786.828125
2733.421875	63071.488281
2732.000000	63509.605469
2730.578125	63292.648438
2729.155273	62782.859375
2727.733398	62753.183594
2726.309570	63104.492188
2724.886719	62840.214844
2723.462891	62829.917969
2722.038086	62706.824219
2720.614258	63019.003906
2719.189453	62656.335938
2717.763672	62860.929688
2716.338867	63155.214844
2714.912109	62671.300781
2713.486328	62613.503906
2712.059570	62293.578125
2710.632813	62531.398438
2709.205078	62538.726563
2707.777344	62843.160156
2706.349609	62495.347656
2704.920898	62381.410156
2703.492188	62634.691406
2702.063477	62310.000000
2700.633789	62626.375000
2699.204102	62777.570313
2697.774414	62670.691406
2696.343750	62488.414063
2694.912109	62851.765625
2693.481445	62387.167969
2692.049805	62269.949219
2690.618164	62529.644531
2689.185547	62182.867188
2687.752930	62530.042969
2686.319336	61964.484375
2684.886719	62532.167969
2683.453125	62061.414063
2682.018555	62574.519531
2680.583984	62432.937500
2679.149414	62140.976563
2677.713867	62198.937500
2676.278320	62318.062500
2674.842773	62610.179688
2673.406250	62300.960938
2671.969727	62159.621094
2670.533203	61590.390625
2669.095703	62296.250000
2667.658203	62367.996094
2666.219727	62298.316406
2664.781250	62314.171875
2663.342773	62159.046875
2661.903320	61923.761719
2660.463867	61965.832031
2659.024414	61850.988281
2657.583984	61828.558594
2656.143555	61598.792969
2654.703125	61949.207031
2653.261719	61925.011719
2651.820313	61568.277344
2650.377930	62129.035156
2648.935547	61325.179688
2647.493164	61715.207031
2646.049805	61739.769531
2644.606445	61924.296875
2643.162109	61620.210938
2641.718750	62082.750000
2640.273438	61947.312500
2638.829102	62194.113281
2637.383789	61693.988281
2635.938477	61881.683594
2634.492188	61779.386719
2633.045898	61684.082031
2631.598633	61765.781250
2630.152344	61623.679688
2628.705078	62067.777344
2627.256836	61728.015625
2625.808594	62116.386719
2624.360352	61984.710938
2622.911133	61721.433594
2621.461914	62022.894531
2620.012695	62319.007813
2618.562500	61874.062500
2617.112305	61673.351563
2615.661133	61934.707031
2614.210938	61683.906250
2612.758789	62124.968750
2611.307617	62190.625000
2609.855469	61818.937500
2608.402344	61984.855469
2606.950195	61960.640625
2605.496094	62295.687500
2604.042969	62157.433594
2602.588867	61907.035156
2601.134766	62086.492188
2599.679688	61361.730469
2598.224609	61705.097656
2596.769531	61743.042969
2595.313477	61839.578125
2593.857422	61677.507813
2592.401367	61412.113281
2590.944336	61589.617188
2589.486328	61551.722656
2588.029297	61579.277344
2586.571289	61560.328125
2585.112305	61037.105469
2583.654297	61228.210938
2582.195313	61396.855469
2580.735352	61254.121094
2579.275391	61059.875000
2577.815430	61035.894531
2576.354492	61336.714844
2574.893555	61417.464844
2573.432617	61324.687500
2571.970703	61061.945313
2570.508789	61312.648438
2569.045898	61082.640625
2567.583984	60802.984375
2566.120117	60710.449219
2564.657227	61130.746094
2563.193359	60755.253906
2561.728516	61158.175781
2560.263672	60822.269531
2558.798828	60873.730469
2557.333984	60998.816406
2555.868164	60289.871094
2554.402344	60639.300781
2552.935547	60570.921875
2551.468750	60346.859375
2550.000977	60648.089844
2548.534180	60571.195313
2547.065430	60526.816406
2545.597656	60371.343750
2544.128906	60648.312500
2542.659180	60520.210938
2541.190430	60443.414063
2539.720703	60679.152344
2538.250000	60190.894531
2536.779297	60317.332031
2535.308594	60286.710938
2533.836914	60279.980469
2532.365234	59736.007813
2530.893555	60148.863281
2529.420898	60643.328125
2527.948242	59961.617188
2526.475586	59912.355469
2525.001953	59878.441406
2523.527344	59856.460938
2522.053711	59642.097656
2520.579102	59666.132813
2519.103516	59836.488281
2517.627930	59862.148438
2516.152344	60190.531250
2514.675781	60054.542969
2513.199219	59617.734375
2511.722656	59716.480469
2510.245117	59764.199219
2508.767578	59777.910156
2507.290039	59618.398438
2505.811523	60083.734375
2504.333008	59725.625000
2502.853516	59130.125000
2501.374023	59495.121094
2499.893555	59386.734375
2498.414063	59319.089844
2496.932617	60048.203125
2495.452148	59626.210938
2493.970703	59589.039063
2492.488281	59368.937500
2491.006836	59277.644531
2489.524414	59912.699219
2488.041016	59386.308594
2486.557617	59709.644531
2485.074219	59484.687500
2483.589844	59248.000000
2482.105469	59238.003906
2480.621094	59665.832031
2479.135742	59488.414063
2477.650391	59199.566406
2476.164063	59953.066406
2474.677734	59449.765625
2473.191406	59353.597656
2471.704102	59227.089844
2470.216797	59269.382813
2468.728516	59213.800781
2467.240234	58827.675781
2465.751953	59148.234375
2464.262695	59623.710938
2462.773438	59495.605469
2461.283203	59761.816406
2459.793945	59177.250000
2458.302734	59190.796875
2456.812500	59677.410156
2455.321289	59384.480469
2453.829102	59083.277344
2452.336914	59021.109375
2450.844727	59236.468750
2449.351563	59271.800781
2447.858398	59444.953125
2446.365234	58944.101563
2444.871094	58853.457031
2443.376953	59073.593750
2441.882813	58882.191406
2440.387695	58726.140625
2438.891602	58957.875000
2437.395508	58816.968750
2435.899414	59573.628906
2434.403320	59229.695313
2432.906250	58706.523438
2431.409180	58726.726563
2429.911133	58582.683594
2428.413086	58941.332031
2426.914063	58589.593750
2425.416016	58728.679688
2423.916016	58502.726563
2422.416992	58211.605469
2420.916992	58333.929688
2419.416016	58583.324219
2417.915039	58474.683594
2416.414063	58590.144531
2414.912109	58561.781250
2413.410156	58165.777344
2411.908203	58464.988281
2410.405273	58391.566406
2408.902344	58271.417969
2407.398438	58516.933594
2405.894531	57896.101563
2404.390625	58331.792969
2402.885742	58023.261719
2401.380859	58036.753906
2399.875977	58291.988281
2398.370117	57863.671875
2396.863281	57928.835938
2395.356445	58080.593750
2393.849609	57870.835938
2392.342773	57434.714844
2390.834961	57549.843750
2389.327148	57766.429688
2387.818359	57941.296875
2386.309570	58082.804688
2384.799805	57713.683594
2383.290039	57348.074219
2381.780273	57562.742188
2380.269531	57592.839844
2378.758789	57408.609375
2377.248047	57388.894531
2375.736328	57825.812500
2374.223633	57540.382813
2372.711914	57565.441406
2371.199219	57203.890625
2369.685547	57932.328125
2368.171875	57458.089844
2366.658203	57289.148438
2365.143555	57171.667969
2363.628906	57208.347656
2362.114258	57346.062500
2360.598633	57535.039063
2359.083008	57296.722656
2357.566406	57315.101563
2356.049805	57326.847656
2354.532227	57381.601563
2353.014648	57179.933594
2351.497070	57085.855469
2349.978516	56796.738281
2348.459961	56884.605469
2346.941406	56770.828125
2345.421875	56680.234375
2343.902344	56992.652344
2342.381836	56561.910156
2340.861328	56623.285156
2339.340820	57126.890625
2337.819336	56595.789063
2336.296875	56601.007813
2334.775391	56665.585938
2333.252930	56715.289063
2331.729492	56484.777344
2330.206055	56755.281250
2328.682617	56767.019531
2327.158203	56655.230469
2325.633789	56304.757813
2324.109375	56222.765625
2322.583984	56392.582031
2321.057617	56318.820313
2319.532227	56551.011719
2318.005859	56000.386719
2316.478516	55939.921875
2314.951172	56076.695313
2313.423828	56326.761719
2311.895508	55867.085938
2310.367188	56016.894531
2308.838867	56407.960938
2307.309570	56413.101563
2305.779297	56096.617188
2304.250000	55603.113281
2302.718750	56339.917969
2301.188477	56033.515625
2299.657227	55968.234375
2298.125000	55788.265625
2296.593750	55937.699219
2295.061523	56055.925781
2293.528320	55854.769531
2291.995117	55411.417969
2290.461914	55293.992188
2288.927734	55433.519531
2287.393555	55512.437500
2285.858398	55727.050781
2284.323242	55487.019531
2282.788086	55188.261719
2281.251953	55613.582031
2279.715820	55305.132813
2278.178711	54941.304688
2276.641602	55433.292969
2275.103516	55427.121094
2273.566406	54924.804688
2272.027344	54832.281250
2270.489258	55217.738281
2268.950195	55011.019531
2267.410156	55319.597656
2265.870117	54932.027344
2264.330078	55077.503906
2262.789063	54921.515625
2261.248047	54752.574219
2259.706055	55065.679688
2258.165039	54917.937500
2256.622070	54491.984375
2255.079102	54988.746094
2253.536133	54784.195313
2251.993164	54410.628906
2250.449219	54814.343750
2248.904297	54907.410156
2247.359375	54664.074219
2245.814453	54599.550781
2244.269531	54710.453125
2242.723633	54809.925781
2241.176758	54558.730469
2239.629883	54314.152344
2238.083008	54389.300781
2236.535156	54399.527344
2234.987305	54401.632813
2233.439453	54689.046875
2231.890625	54637.585938
2230.340820	54480.832031
2228.791992	54520.152344
2227.242188	54844.460938
2225.691406	54598.714844
2224.140625	54081.171875
2222.589844	53931.210938
2221.038086	54430.031250
2219.486328	54370.617188
2217.933594	54265.957031
2216.380859	54048.191406
2214.828125	54399.382813
2213.274414	54330.324219
2211.719727	54564.953125
2210.166016	54229.437500
2208.611328	54221.808594
2207.055664	54432.058594
2205.500000	54690.601563
2203.944336	54621.546875
2202.387695	54176.761719
2200.831055	54618.953125
2199.273438	54090.574219
2197.715820	54197.371094
2196.158203	54230.000000
2194.599609	54143.421875
2193.041016	53952.222656
2191.481445	53733.753906
2189.921875	54366.730469
2188.362305	54296.277344
2186.801758	53982.972656
2185.240234	54277.679688
2183.679688	53970.960938
2182.117188	53797.796875
2180.555664	53777.371094
2178.993164	54173.007813
2177.430664	54359.656250
2175.867188	54109.488281
2174.302734	53875.492188
2172.739258	53930.468750
2171.174805	54152.261719
2169.609375	54064.378906
2168.043945	53724.789063
2166.478516	53973.699219
2164.912109	54042.976563
2163.345703	53873.480469
2161.779297	54248.687500
2160.211914	53997.542969
2158.643555	53858.593750
2157.075195	53714.914063
2155.506836	54070.546875
2153.937500	53733.304688
2152.368164	53552.968750
2150.798828	53909.949219
2149.228516	53777.605469
2147.657227	53936.171875
2146.086914	53783.113281
2144.515625	53924.015625
2142.943359	53354.257813
2141.371094	53849.589844
