#Wave		#Intensity
3550.405273	51260.648438
3549.173828	50906.101563
3547.941406	51158.039063
3546.708984	51267.289063
3545.476563	51097.507813
3544.243164	51357.371094
3543.010742	51494.984375
3541.777344	51514.507813
3540.542969	51230.859375
3539.309570	51836.250000
3538.075195	51343.171875
3536.840820	51098.359375
3535.605469	51170.769531
3534.371094	51592.714844
3533.135742	51252.484375
3531.900391	51505.605469
3530.664063	51427.539063
3529.428711	51321.070313
3528.192383	51247.128906
3526.955078	50988.500000
3525.718750	51283.992188
3524.481445	51575.292969
3523.244141	51487.136719
3522.006836	51267.187500
3520.768555	51171.011719
3519.530273	51405.300781
3518.291992	51511.800781
3517.053711	51616.222656
3515.814453	51303.261719
3514.575195	51806.683594
3513.335938	51736.804688
3512.095703	51772.230469
3510.855469	51127.527344
3509.615234	51254.121094
3508.375000	51902.656250
3507.133789	51832.804688
3505.892578	51775.109375
3504.651367	51685.082031
3503.410156	51708.296875
3502.167969	51759.785156
3500.925781	52294.183594
3499.683594	51600.058594
3498.440430	51829.261719
3497.197266	51721.128906
3495.954102	51774.550781
3494.710938	52110.531250
3493.466797	51554.390625
3492.222656	51968.945313
3490.978516	52016.191406
3489.734375	52335.667969
3488.489258	52471.519531
3487.244141	52165.839844
3485.999023	52114.222656
3484.752930	52322.554688
3483.506836	51654.472656
3482.260742	52050.113281
3481.014648	51771.003906
3479.767578	52315.410156
3478.520508	51684.117188
3477.273438	52095.480469
3476.025391	52047.949219
3474.777344	51817.386719
3473.529297	51967.003906
3472.281250	52611.156250
3471.032227	52278.085938
3469.784180	52204.410156
3468.534180	52353.789063
3467.285156	52047.089844
3466.035156	52465.550781
3464.785156	52118.792969
3463.535156	52229.890625
3462.284180	52212.484375
3461.033203	52391.730469
3459.782227	52151.593750
3458.531250	52585.500000
3457.279297	52582.042969
3456.027344	52602.640625
3454.775391	52707.410156
3453.522461	52970.449219
3452.270508	52942.843750
3451.016602	52853.148438
3449.763672	52140.644531
3448.509766	52231.355469
3447.255859	52864.519531
3446.001953	52304.566406
3444.748047	52483.207031
3443.493164	52983.847656
3442.238281	52582.226563
3440.983398	52352.742188
3439.727539	52301.285156
3438.471680	52175.890625
3437.215820	52306.328125
3435.958984	52322.824219
3434.703125	52359.281250
3433.446289	52357.773438
3432.188477	52977.195313
3430.931641	52967.558594
3429.673828	52546.800781
3428.416016	52433.496094
3427.157227	52302.281250
3425.898438	52510.160156
3424.639648	52257.343750
3423.380859	52435.230469
3422.121094	52399.773438
3420.862305	52623.367188
3419.601563	52032.050781
3418.341797	52391.054688
3417.081055	52128.605469
3415.820313	52350.050781
3414.559570	52535.562500
3413.297852	52209.554688
3412.036133	52418.878906
3410.774414	52393.390625
3409.512695	51944.316406
3408.250000	51996.468750
3406.987305	52499.828125
3405.724609	52186.148438
3404.460938	52283.898438
3403.197266	51829.355469
3401.933594	52203.187500
3400.669922	52008.964844
3399.405273	52454.046875
3398.140625	51404.425781
3396.875977	52016.113281
3395.610352	51790.339844
3394.344727	51854.238281
3393.079102	51838.785156
3391.813477	51946.246094
3390.546875	51613.632813
3389.280273	51826.113281
3388.013672	52024.628906
3386.746094	51981.390625
3385.478516	51678.746094
3384.210938	51716.773438
3382.943359	51936.882813
3381.674805	51913.472656
3380.406250	52388.667969
3379.136719	51684.675781
3377.868164	51601.988281
3376.598633	51930.601563
3375.329102	51895.328125
3374.058594	51773.105469
3372.789063	51704.277344
3371.517578	51592.015625
3370.247070	51706.933594
3368.975586	51559.164063
3367.705078	51460.812500
3366.432617	51449.343750
3365.161133	51353.019531
3363.888672	51548.718750
3362.616211	51537.218750
3361.343750	51440.925781
3360.070313	51232.289063
3358.796875	51276.042969
3357.523438	51367.066406
3356.249023	51227.527344
3354.974609	51501.699219
3353.700195	51490.187500
3352.425781	51470.800781
3351.150391	51543.933594
3349.875000	51475.328125
3348.599609	51812.070313
3347.323242	52083.742188
3346.046875	51794.777344
3344.770508	51474.476563
3343.494141	51439.355469
3342.216797	51302.046875
3340.939453	51447.742188
3339.661133	51550.148438
3338.383789	51322.542969
3337.105469	51788.187500
3335.827148	51542.949219
3334.547852	51560.824219
3333.268555	51843.589844
3331.989258	51584.753906
3330.709961	51551.593750
3329.429688	51220.371094
3328.149414	51065.742188
3326.869141	51810.855469
3325.587891	51477.824219
3324.306641	51642.570313
3323.025391	51576.105469
3321.744141	51405.875000
3320.461914	51813.289063
3319.179688	51709.621094
3317.896484	51737.117188
3316.614258	51752.851563
3315.331055	51780.308594
3314.047852	51893.800781
3312.763672	51670.933594
3311.479492	51977.910156
3310.195313	51979.863281
3308.911133	51516.781250
3307.625977	52233.796875
3306.340820	52348.949219
3305.054688	52122.343750
3303.769531	52089.093750
3302.483398	52180.761719
3301.197266	52090.917969
3299.910156	51975.746094
3298.623047	51899.628906
3297.335938	52472.871094
3296.048828	52082.796875
3294.760742	52854.527344
3293.472656	52678.878906
3292.184570	52466.285156
3290.895508	52555.683594
3289.606445	52033.585938
3288.317383	52047.101563
3287.028320	52039.195313
3285.738281	52364.046875
3284.448242	52336.605469
3283.157227	52523.132813
3281.867188	52478.152344
3280.576172	52750.093750
3279.284180	52627.324219
3277.993164	52432.699219
3276.701172	52506.273438
3275.409180	52692.468750
3274.116211	52362.007813
3272.823242	52641.335938
3271.530273	52639.070313
3270.237305	52450.492188
3268.943359	52814.964844
3267.649414	52362.609375
3266.355469	52777.347656
3265.060547	52707.160156
3263.765625	52439.277344
3262.470703	52454.464844
3261.174805	53004.406250
3259.879883	52732.750000
3258.583008	52484.449219
3257.287109	52484.093750
3255.990234	52181.750000
3254.693359	52609.171875
3253.396484	51993.464844
3252.098633	52316.261719
3250.800781	52507.390625
3249.502930	53108.347656
3248.205078	52711.515625
3246.906250	52560.312500
3245.607422	52644.910156
3244.307617	52567.187500
3243.007813	53115.269531
3241.708008	52245.777344
3240.408203	52706.792969
3239.107422	52165.890625
3237.806641	52661.441406
3236.505859	52578.000000
3235.204102	52822.476563
3233.902344	52557.765625
3232.600586	52792.488281
3231.298828	52865.191406
3229.996094	52758.648438
3228.693359	52964.246094
3227.389648	53108.105469
3226.086914	52375.726563
3224.783203	52764.148438
3223.478516	53061.921875
3222.173828	52872.695313
3220.870117	53176.066406
3219.564453	52694.531250
3218.259766	52505.503906
3216.954102	52970.226563
3215.648438	53111.816406
3214.341797	52582.667969
3213.035156	52970.187500
3211.728516	52564.238281
3210.421875	52694.242188
3209.114258	52277.011719
3207.806641	52524.101563
3206.499023	52481.296875
3205.190430	52517.167969
3203.881836	52670.023438
3202.573242	52479.539063
3201.263672	52774.195313
3199.954102	52451.503906
3198.644531	52393.410156
3197.333984	52019.210938
3196.024414	52681.453125
3194.713867	52667.375000
3193.402344	52335.476563
3192.090820	52252.562500
3190.779297	52489.273438
3189.467773	52260.945313
3188.155273	52170.437500
3186.842773	52330.488281
3185.530273	52226.613281
3184.216797	52401.859375
3182.903320	52156.585938
3181.589844	52312.648438
3180.276367	52119.074219
3178.961914	52563.429688
3177.646484	52434.789063
3176.332031	52035.144531
3175.016602	52416.218750
3173.701172	51928.988281
3172.385742	51693.769531
3171.069336	52339.722656
3169.752930	51940.539063
3168.436523	51875.113281
3167.119141	51969.796875
3165.801758	52093.011719
3164.484375	52105.679688
3163.166016	52044.062500
3161.847656	51866.328125
3160.529297	51336.515625
3159.209961	51640.500000
3157.890625	52098.449219
3156.571289	51844.757813
3155.251953	51598.781250
3153.931641	51782.613281
3152.611328	51842.800781
3151.290039	51872.542969
3149.968750	52002.968750
3148.647461	51895.882813
3147.326172	52050.917969
3146.003906	52088.156250
3144.681641	51948.839844
3143.359375	51697.609375
3142.036133	51928.417969
3140.712891	51908.722656
3139.389648	51862.480469
3138.065430	51490.136719
3136.742188	51959.597656
3135.416992	51951.261719
3134.092773	52132.390625
3132.767578	51404.191406
3131.442383	51668.679688
3130.116211	51686.906250
3128.790039	51515.820313
3127.463867	51742.234375
3126.137695	51747.164063
3124.810547	51596.976563
3123.483398	51490.351563
3122.156250	51536.917969
3120.828125	51456.808594
3119.500000	51578.941406
3118.170898	51835.156250
3116.842773	51643.570313
3115.513672	51869.425781
3114.183594	51810.070313
3112.854492	51850.785156
3111.524414	51895.246094
3110.194336	51400.078125
3108.863281	52008.613281
3107.532227	51600.386719
3106.201172	52069.058594
3104.869141	51464.960938
3103.537109	51351.117188
3102.205078	51855.300781
3100.873047	52202.894531
3099.540039	51627.562500
3098.207031	51784.878906
3096.873047	51816.003906
3095.539063	51482.027344
3094.205078	51942.160156
3092.871094	51850.945313
3091.536133	52047.488281
3090.201172	52187.531250
3088.866211	51479.781250
3087.530273	51851.023438
3086.194336	51684.757813
3084.857422	51787.164063
3083.521484	52039.750000
3082.184570	52142.011719
3080.846680	51553.488281
3079.509766	51912.894531
3078.171875	51977.578125
3076.833008	51944.691406
3075.495117	52251.226563
3074.156250	52073.921875
3072.817383	52089.750000
3071.477539	52009.996094
3070.137695	51579.937500
3068.797852	52159.632813
3067.457031	52188.507813
3066.116211	51756.824219
3064.775391	51956.097656
3063.434570	52179.593750
3062.092773	51939.023438
3060.750977	51966.023438
3059.408203	52064.058594
3058.065430	52076.046875
3056.722656	52542.195313
3055.378906	52378.406250
3054.036133	51756.996094
3052.691406	52392.835938
3051.347656	52216.109375
3050.002930	52117.867188
3048.658203	52495.593750
3047.313477	52012.941406
3045.967773	51890.546875
3044.622070	52044.238281
3043.275391	52058.000000
3041.929688	52153.777344
3040.582031	52092.949219
3039.235352	52626.527344
3037.887695	52358.832031
3036.540039	52325.914063
3035.192383	52056.542969
3033.843750	51712.832031
3032.495117	52180.703125
3031.146484	52237.148438
3029.796875	52146.609375
3028.447266	52303.453125
3027.097656	51922.875000
3025.747070	51996.035156
3024.396484	51979.953125
3023.044922	51765.066406
3021.694336	52018.378906
3020.342773	51484.156250
3018.990234	52234.984375
3017.638672	51845.734375
3016.286133	51553.167969
3014.932617	51403.593750
3013.580078	51565.707031
3012.226563	51751.843750
3010.872070	51754.339844
3009.518555	51664.152344
3008.164063	51850.117188
3006.808594	51741.410156
3005.454102	51490.128906
3004.098633	51642.652344
3002.743164	51708.082031
3001.386719	51717.949219
3000.030273	51446.539063
2998.673828	51362.101563
2997.316406	51444.160156
2995.958984	51439.265625
2994.601563	51495.375000
2993.243164	51266.824219
2991.884766	51206.523438
2990.526367	51199.820313
2989.166992	51828.460938
2987.807617	51177.175781
2986.448242	51109.550781
2985.087891	51447.984375
2983.727539	51035.269531
2982.367188	50620.902344
2981.005859	51162.062500
2979.644531	51225.406250
2978.283203	51133.867188
2976.921875	51009.195313
2975.559570	51046.718750
2974.196289	51045.531250
2972.833984	51156.683594
2971.470703	51468.460938
2970.106445	51019.859375
2968.743164	51219.253906
2967.378906	51194.085938
2966.013672	50924.277344
2964.649414	51191.578125
2963.284180	50973.371094
2961.917969	50926.203125
2960.552734	51101.410156
2959.186523	51456.574219
2957.819336	51255.023438
2956.453125	51226.175781
2955.085938	50736.527344
2953.717773	51522.746094
2952.350586	51194.734375
2950.982422	51220.945313
2949.613281	51500.246094
2948.245117	51464.011719
2946.875977	51722.945313
2945.505859	51620.683594
2944.136719	51135.507813
2942.766602	51414.464844
2941.395508	51231.750000
2940.025391	51459.269531
2938.654297	51899.023438
2937.282227	51888.343750
2935.910156	52097.226563
2934.538086	51541.375000
2933.166016	51587.464844
2931.792969	51777.968750
2930.419922	51981.171875
2929.046875	51769.429688
2927.672852	51738.660156
2926.298828	51788.273438
2924.923828	51879.859375
2923.549805	51991.480469
2922.173828	51951.539063
2920.798828	51397.003906
2919.422852	51782.304688
2918.046875	52090.804688
2916.670898	51751.800781
2915.293945	51901.539063
2913.916992	51704.898438
2912.539063	52020.386719
2911.161133	52005.976563
2909.783203	51793.042969
2908.404297	52192.027344
2907.026367	51403.882813
2905.646484	51775.453125
2904.267578	52237.820313
2902.887695	52376.152344
2901.507813	52139.761719
2900.126953	52185.308594
2898.746094	51867.269531
2897.365234	52347.199219
2895.983398	52405.363281
2894.601563	52523.437500
2893.219727	52519.777344
2891.836914	52209.277344
2890.454102	51839.019531
2889.071289	52260.152344
2887.687500	52287.378906
2886.303711	52107.808594
2884.919922	52283.746094
2883.535156	52648.140625
2882.150391	52249.285156
2880.765625	52196.718750
2879.379883	52167.730469
2877.994141	52272.773438
2876.608398	52274.550781
2875.221680	52345.109375
2873.834961	52288.941406
2872.447266	52111.558594
2871.059570	52138.675781
2869.671875	51597.890625
2868.284180	51644.996094
2866.895508	52180.144531
2865.506836	52080.691406
2864.117188	51782.531250
2862.727539	51979.453125
2861.337891	51667.007813
2859.947266	51629.136719
2858.556641	51892.722656
2857.166016	51374.785156
2855.775391	51744.738281
2854.383789	51806.066406
2852.991211	51751.957031
2851.599609	51279.605469
2850.207031	51380.644531
2848.813477	51342.875000
2847.419922	51002.464844
2846.026367	51335.816406
2844.632813	51299.871094
2843.238281	50891.300781
2841.843750	51204.621094
2840.449219	50796.261719
2839.053711	50224.398438
2837.658203	50724.671875
2836.261719	50969.382813
2834.865234	50550.671875
2833.468750	50556.277344
2832.072266	50430.718750
2830.674805	50574.652344
2829.276367	50763.406250
2827.878906	50354.207031
2826.480469	50112.128906
2825.082031	50584.367188
2823.682617	50342.343750
2822.283203	50071.734375
2820.882813	50337.406250
2819.483398	50122.496094
2818.083008	50138.886719
2816.681641	50071.046875
2815.281250	49632.421875
2813.878906	49770.691406
2812.477539	49771.015625
2811.075195	49452.703125
2809.672852	50115.265625
2808.269531	49859.632813
2806.866211	49816.988281
2805.462891	50056.910156
2804.059570	50017.804688
2802.655273	49771.363281
2801.250000	49928.906250
2799.845703	49536.101563
2798.440430	49957.957031
2797.034180	49917.109375
2795.628906	49631.695313
2794.222656	49612.355469
2792.815430	49946.324219
2791.408203	49461.300781
2790.000977	49896.789063
2788.593750	49337.117188
2787.185547	49594.152344
2785.777344	49783.332031
2784.368164	49722.972656
2782.958984	49623.445313
2781.549805	49775.066406
2780.140625	49344.406250
2778.730469	49351.832031
2777.319336	49973.191406
2775.909180	49765.175781
2774.497070	49911.210938
2773.085938	49881.125000
2771.673828	49708.828125
2770.261719	50085.808594
2768.849609	49492.406250
2767.436523	50009.589844
2766.023438	49666.906250
2764.609375	49830.433594
2763.195313	49756.007813
2761.781250	49214.855469
2760.367188	49568.207031
2758.952148	49999.429688
2757.536133	49761.859375
2756.121094	49933.957031
2754.705078	49503.300781
2753.288086	49740.933594
2751.871094	49634.742188
2750.454102	50139.667969
2749.037109	49511.042969
2747.619141	50150.285156
2746.201172	49833.457031
2744.782227	49863.597656
2743.363281	49776.960938
2741.944336	49791.175781
2740.524414	50226.195313
2739.104492	49923.855469
2737.684570	49747.140625
2736.263672	49770.156250
2734.842773	49946.835938
2733.421875	49782.593750
2732.000000	49915.031250
2730.578125	49911.488281
2729.155273	49923.824219
2727.733398	49913.214844
2726.309570	49992.558594
2724.886719	49810.878906
2723.462891	49867.281250
2722.038086	49509.468750
2720.614258	49673.390625
2719.189453	49796.707031
2717.763672	49854.796875
2716.338867	50097.726563
2714.912109	50159.218750
2713.486328	49784.238281
2712.059570	49421.753906
2710.632813	49680.359375
2709.205078	49921.246094
2707.777344	49446.464844
2706.349609	49638.066406
2704.920898	49228.597656
2703.492188	49537.851563
2702.063477	49242.761719
2700.633789	49162.039063
2699.204102	49427.175781
2697.774414	49386.800781
2696.343750	49655.250000
2694.912109	49244.699219
2693.481445	49407.816406
2692.049805	49476.171875
2690.618164	49086.988281
2689.185547	49390.203125
2687.752930	49097.585938
2686.319336	49186.949219
2684.886719	49847.121094
2683.453125	49307.750000
2682.018555	49141.441406
2680.583984	49020.707031
2679.149414	49087.207031
2677.713867	49220.128906
2676.278320	49344.238281
2674.842773	49227.050781
2673.406250	48982.335938
2671.969727	49019.039063
2670.533203	49071.437500
2669.095703	49125.550781
2667.658203	48977.109375
2666.219727	49507.718750
2664.781250	49345.285156
2663.342773	49039.875000
2661.903320	49365.988281
2660.463867	49022.355469
2659.024414	48851.472656
2657.583984	48448.871094
2656.143555	49112.812500
2654.703125	48957.695313
2653.261719	48840.964844
2651.820313	49081.210938
2650.377930	48682.511719
2648.935547	48912.226563
2647.493164	48927.824219
2646.049805	48162.449219
2644.606445	48978.117188
2643.162109	48831.996094
2641.718750	48619.898438
2640.273438	48699.820313
2638.829102	49142.765625
2637.383789	49021.042969
2635.938477	48501.765625
2634.492188	48651.050781
2633.045898	48749.929688
2631.598633	48991.023438
2630.152344	49200.769531
2628.705078	48761.839844
2627.256836	48831.097656
2625.808594	48995.648438
2624.360352	48553.621094
2622.911133	49102.734375
2621.461914	48912.027344
2620.012695	48953.433594
2618.562500	48920.375000
2617.112305	49122.699219
2615.661133	48906.203125
2614.210938	48741.703125
2612.758789	48454.500000
2611.307617	49400.148438
2609.855469	48857.097656
2608.402344	49370.148438
2606.950195	48931.027344
2605.496094	48787.464844
2604.042969	48908.164063
2602.588867	48742.230469
2601.134766	48648.859375
2599.679688	48857.484375
2598.224609	48672.699219
2596.769531	48510.417969
2595.313477	48634.421875
2593.857422	48722.160156
2592.401367	48392.820313
2590.944336	48465.062500
2589.486328	47984.371094
2588.029297	48457.886719
2586.571289	48671.207031
2585.112305	48583.222656
2583.654297	48379.992188
2582.195313	48352.324219
2580.735352	48173.320313
2579.275391	48663.238281
2577.815430	48080.289063
2576.354492	48350.007813
2574.893555	48184.910156
2573.432617	48612.476563
2571.970703	47830.914063
2570.508789	48169.074219
2569.045898	47767.316406
2567.583984	47983.480469
2566.120117	47935.351563
2564.657227	48166.789063
2563.193359	47530.519531
2561.728516	48133.910156
2560.263672	47993.226563
2558.798828	48092.476563
2557.333984	48248.191406
2555.868164	47448.285156
2554.402344	47636.605469
2552.935547	47905.269531
2551.468750	47900.007813
2550.000977	47995.679688
2548.534180	47595.316406
2547.065430	47749.140625
2545.597656	47478.949219
2544.128906	47641.261719
2542.659180	47639.464844
2541.190430	47596.667969
2539.720703	47543.644531
2538.250000	47818.433594
2536.779297	47458.144531
2535.308594	47405.179688
2533.836914	47231.117188
2532.365234	47214.046875
2530.893555	47048.632813
2529.420898	47266.851563
2527.948242	47154.332031
2526.475586	47147.500000
2525.001953	47251.386719
2523.527344	47169.593750
2522.053711	47315.976563
2520.579102	47079.312500
2519.103516	46807.027344
2517.627930	46810.472656
2516.152344	47523.136719
2514.675781	46939.769531
2513.199219	47216.851563
2511.722656	46985.644531
2510.245117	47245.574219
2508.767578	47026.355469
2507.290039	46944.796875
2505.811523	47338.648438
2504.333008	46841.199219
2502.853516	46876.820313
2501.374023	46844.562500
2499.893555	46641.015625
2498.414063	46915.730469
2496.932617	46920.765625
2495.452148	46732.593750
2493.970703	46795.269531
2492.488281	47012.054688
2491.006836	46981.480469
2489.524414	46766.375000
2488.041016	47280.886719
2486.557617	47368.703125
2485.074219	46991.246094
2483.589844	46847.375000
2482.105469	46439.796875
2480.621094	46902.996094
2479.135742	46559.824219
2477.650391	46679.765625
2476.164063	47017.539063
2474.677734	46666.140625
2473.191406	47032.441406
2471.704102	46649.136719
2470.216797	46375.710938
2468.728516	46880.125000
2467.240234	46670.855469
2465.751953	46605.011719
2464.262695	46503.796875
2462.773438	46520.597656
2461.283203	46515.484375
2459.793945	46635.015625
2458.302734	46485.042969
2456.812500	46707.210938
2455.321289	46929.257813
2453.829102	46712.000000
2452.336914	46790.933594
2450.844727	46489.722656
2449.351563	46657.773438
2447.858398	46850.953125
2446.365234	46474.316406
2444.871094	46548.144531
2443.376953	46601.773438
2441.882813	46154.949219
2440.387695	46460.468750
2438.891602	46398.253906
2437.395508	46456.882813
2435.899414	46215.191406
2434.403320	46419.738281
2432.906250	46349.199219
2431.409180	46429.550781
2429.911133	46085.871094
2428.413086	45846.238281
2426.914063	46246.570313
2425.416016	46204.605469
2423.916016	46027.054688
2422.416992	46095.625000
2420.916992	46192.601563
2419.416016	45998.449219
2417.915039	46259.289063
2416.414063	45782.640625
2414.912109	45904.652344
2413.410156	45907.949219
2411.908203	45876.152344
2410.405273	45540.375000
2408.902344	46011.308594
2407.398438	45785.843750
2405.894531	45648.945313
2404.390625	45588.871094
2402.885742	45789.050781
2401.380859	45934.089844
2399.875977	45790.605469
2398.370117	45688.863281
2396.863281	45825.472656
2395.356445	45645.460938
2393.849609	45417.238281
2392.342773	45662.031250
2390.834961	45437.242188
2389.327148	45602.007813
2387.818359	45721.761719
2386.309570	45528.722656
2384.799805	45332.449219
2383.290039	45315.835938
2381.780273	45515.304688
2380.269531	45103.148438
2378.758789	44898.859375
2377.248047	45149.761719
2375.736328	45452.000000
2374.223633	45035.285156
2372.711914	45124.960938
2371.199219	45370.546875
2369.685547	45017.191406
2368.171875	45720.375000
2366.658203	45193.023438
2365.143555	44904.613281
2363.628906	45186.375000
2362.114258	45120.097656
2360.598633	45131.691406
2359.083008	45136.648438
2357.566406	45040.625000
2356.049805	44770.878906
2354.532227	45189.539063
2353.014648	45103.488281
2351.497070	44584.218750
2349.978516	44860.414063
2348.459961	44929.863281
2346.941406	44829.078125
2345.421875	44789.460938
2343.902344	44817.574219
2342.381836	44903.457031
2340.861328	44700.421875
2339.340820	44512.335938
2337.819336	44726.906250
2336.296875	44807.757813
2334.775391	44519.191406
2333.252930	44636.316406
2331.729492	44385.839844
2330.206055	44797.871094
2328.682617	44690.789063
2327.158203	44470.121094
2325.633789	44475.128906
2324.109375	44244.750000
2322.583984	44267.902344
2321.057617	44592.105469
2319.532227	44837.191406
2318.005859	44457.304688
2316.478516	44302.824219
2314.951172	44358.785156
2313.423828	44258.621094
2311.895508	44120.722656
2310.367188	43959.902344
2308.838867	44194.828125
2307.309570	43999.593750
2305.779297	43968.546875
2304.250000	44103.207031
2302.718750	44290.273438
2301.188477	44154.226563
2299.657227	43405.175781
2298.125000	43613.570313
2296.593750	43735.015625
2295.061523	43776.136719
2293.528320	43890.921875
2291.995117	43920.511719
2290.461914	43763.500000
2288.927734	43295.675781
2287.393555	43680.363281
2285.858398	43554.597656
2284.323242	43343.871094
2282.788086	43473.238281
2281.251953	43527.367188
2279.715820	43434.429688
2278.178711	43682.894531
2276.641602	43220.921875
2275.103516	43240.761719
2273.566406	43363.406250
2272.027344	42883.914063
2270.489258	43213.742188
2268.950195	43409.667969
2267.410156	43385.394531
2265.870117	42911.265625
2264.330078	43281.464844
2262.789063	43226.277344
2261.248047	42830.722656
2259.706055	43135.511719
2258.165039	43153.644531
2256.622070	43005.769531
2255.079102	43030.425781
2253.536133	43098.984375
2251.993164	43076.437500
2250.449219	42949.851563
2248.904297	42772.941406
2247.359375	42919.472656
2245.814453	42728.035156
2244.269531	42913.472656
2242.723633	42782.199219
2241.176758	42936.675781
2239.629883	42928.789063
2238.083008	42727.843750
2236.535156	43021.687500
2234.987305	42697.582031
2233.439453	43135.546875
2231.890625	43171.359375
2230.340820	43093.730469
2228.791992	42551.246094
2227.242188	42545.066406
2225.691406	42760.683594
2224.140625	42443.675781
2222.589844	42804.835938
2221.038086	43115.652344
2219.486328	42973.457031
2217.933594	42658.324219
2216.380859	42698.976563
2214.828125	42852.726563
2213.274414	42605.714844
2211.719727	43100.207031
2210.166016	42698.234375
2208.611328	42876.023438
2207.055664	42853.585938
2205.500000	42621.398438
2203.944336	42397.390625
2202.387695	42575.058594
2200.831055	42520.460938
2199.273438	42564.210938
2197.715820	42432.289063
2196.158203	42285.929688
2194.599609	42743.621094
2193.041016	42627.843750
2191.481445	42508.902344
2189.921875	42736.031250
2188.362305	42708.824219
2186.801758	42540.082031
2185.240234	42516.148438
2183.679688	42154.613281
2182.117188	42622.605469
2180.555664	42418.691406
2178.993164	42385.164063
2177.430664	42855.929688
2175.867188	42146.347656
2174.302734	42104.875000
2172.739258	42418.070313
2171.174805	42407.023438
2169.609375	42554.765625
2168.043945	42609.425781
2166.478516	42551.839844
2164.912109	42399.722656
2163.345703	42383.867188
2161.779297	42420.878906
2160.211914	42118.371094
2158.643555	42285.105469
2157.075195	42034.000000
2155.506836	42565.492188
2153.937500	42492.007813
2152.368164	42189.855469
2150.798828	41942.218750
2149.228516	41918.496094
2147.657227	42561.171875
2146.086914	42574.035156
2144.515625	42181.195313
2142.943359	41949.832031
2141.371094	41970.816406
