#Wave		#Intensity
3550.240234	16092.733398
3549.007813	16162.011719
3547.776367	16415.242188
3546.543945	16024.764648
3545.311523	16053.923828
3544.078125	16404.730469
3542.844727	16327.951172
3541.611328	16320.391602
3540.377930	16127.691406
3539.143555	16095.765625
3537.909180	16153.332031
3536.674805	16393.861328
3535.440430	16290.746094
3534.205078	16114.508789
3532.969727	15968.823242
3531.734375	16255.903320
3530.499023	16358.033203
3529.262695	16563.679688
3528.026367	16353.048828
3526.790039	16254.143555
3525.552734	16141.073242
3524.315430	16074.712891
3523.078125	16140.228516
3521.840820	16088.088867
3520.602539	16338.077148
3519.364258	16494.708984
3518.125977	16551.962891
3516.886719	16416.697266
3515.648438	16441.527344
3514.409180	16553.435547
3513.168945	16254.229492
3511.929688	16416.738281
3510.689453	16318.071289
3509.449219	16427.878906
3508.208984	16371.735352
3506.967773	16910.306641
3505.726563	16593.197266
3504.485352	16336.881836
3503.243164	16482.943359
3502.001953	16523.847656
3500.758789	16524.320313
3499.516602	16597.517578
3498.274414	16535.359375
3497.031250	16707.460938
3495.788086	16659.435547
3494.543945	16506.470703
3493.300781	16512.988281
3492.056641	16666.783203
3490.811523	16584.507813
3489.567383	16591.000000
3488.322266	16791.044922
3487.077148	16851.910156
3485.832031	16691.062500
3484.585938	16747.890625
3483.339844	16675.765625
3482.093750	16756.738281
3480.847656	16791.359375
3479.600586	16920.582031
3478.353516	16876.654297
3477.106445	16915.246094
3475.858398	16744.587891
3474.610352	16656.470703
3473.362305	16751.386719
3472.114258	16771.869141
3470.865234	16621.484375
3469.616211	16786.677734
3468.367188	16817.181641
3467.117188	16755.265625
3465.868164	16976.550781
3464.617188	16828.281250
3463.367188	16790.488281
3462.117188	16638.306641
3460.866211	16833.332031
3459.614258	16863.763672
3458.363281	16765.816406
3457.111328	16796.246094
3455.859375	16910.865234
3454.607422	17077.546875
3453.354492	16981.632813
3452.102539	16861.716797
3450.848633	16856.029297
3449.595703	16828.310547
3448.341797	17018.845703
3447.087891	16979.089844
3445.833984	16759.228516
3444.580078	16845.601563
3443.325195	16769.894531
3442.070313	16710.220703
3440.814453	16942.511719
3439.559570	17056.748047
3438.303711	17150.945313
3437.046875	17073.248047
3435.791016	17121.445313
3434.534180	17097.714844
3433.277344	17064.007813
3432.020508	17164.080078
3430.762695	16667.277344
3429.504883	17148.556641
3428.247070	16957.240234
3426.988281	17111.097656
3425.730469	17109.330078
3424.471680	17029.798828
3423.211914	16954.287109
3421.953125	16922.654297
3420.693359	16984.683594
3419.432617	17259.841797
3418.172852	17036.953125
3416.912109	17039.173828
3415.651367	17212.601563
3414.390625	17017.728516
3413.128906	17143.322266
3411.867188	17099.750000
3410.605469	17062.164063
3409.343750	16797.888672
3408.081055	16921.421875
3406.818359	17092.607422
3405.554688	16947.732422
3404.291992	17053.263672
3403.028320	17242.177734
3401.764648	17230.421875
3400.500000	17057.839844
3399.236328	16976.646484
3397.971680	17220.972656
3396.706055	17008.816406
3395.441406	16961.406250
3394.175781	17076.650391
3392.909180	16924.148438
3391.643555	17122.611328
3390.376953	16988.000000
3389.110352	17008.011719
3387.843750	17057.730469
3386.576172	16943.027344
3385.308594	17113.529297
3384.041016	17056.275391
3382.773438	17074.261719
3381.504883	17048.699219
3380.236328	17211.107422
3378.966797	16890.789063
3377.698242	16974.050781
3376.428711	17122.519531
3375.158203	17114.757813
3373.888672	17097.115234
3372.618164	16962.902344
3371.347656	17101.357422
3370.077148	16990.898438
3368.805664	16921.953125
3367.534180	16864.880859
3366.262695	17086.121094
3364.990234	17070.472656
3363.717773	17117.958984
3362.445313	16920.849609
3361.172852	16911.158203
3359.899414	16978.357422
3358.625977	16990.333984
3357.352539	17079.158203
3356.078125	17085.193359
3354.803711	17047.890625
3353.529297	17049.988281
3352.254883	16825.666016
3350.979492	17012.837891
3349.704102	16806.332031
3348.428711	17156.724609
3347.152344	17351.558594
3345.875977	17225.744141
3344.599609	17267.107422
3343.322266	17139.398438
3342.044922	17241.683594
3340.767578	17186.732422
3339.490234	17304.673828
3338.211914	17218.306641
3336.933594	17130.011719
3335.655273	17265.548828
3334.375977	17202.792969
3333.097656	17163.611328
3331.817383	17246.074219
3330.538086	17171.591797
3329.257813	17318.724609
3327.977539	17226.611328
3326.697266	17287.417969
3325.416016	17234.541016
3324.134766	16989.689453
3322.853516	17034.835938
3321.572266	17311.033203
3320.290039	17140.720703
3319.007813	17307.154297
3317.724609	17127.130859
3316.442383	17148.707031
3315.159180	17444.119141
3313.875000	17223.113281
3312.591797	17457.759766
3311.307617	17373.677734
3310.023438	17465.519531
3308.738281	17287.685547
3307.454102	17557.259766
3306.167969	17354.093750
3304.882813	17617.669922
3303.596680	17375.535156
3302.310547	17303.300781
3301.024414	17350.121094
3299.738281	17416.425781
3298.451172	17457.345703
3297.164063	17192.111328
3295.875977	17451.396484
3294.587891	17463.037109
3293.299805	17523.386719
3292.011719	17589.550781
3290.722656	17433.648438
3289.433594	17488.115234
3288.144531	17443.267578
3286.855469	17536.630859
3285.565430	17474.277344
3284.275391	17507.277344
3282.984375	17402.164063
3281.694336	17475.998047
3280.402344	17736.435547
3279.111328	17654.660156
3277.819336	17524.337891
3276.528320	17749.609375
3275.235352	17683.419922
3273.943359	17737.658203
3272.650391	17657.908203
3271.357422	17634.482422
3270.063477	17525.677734
3268.770508	17641.980469
3267.476563	17529.339844
3266.181641	17827.876953
3264.887695	17534.929688
3263.592773	17600.718750
3262.296875	17856.396484
3261.001953	17734.136719
3259.706055	17644.863281
3258.410156	17834.503906
3257.113281	17648.433594
3255.816406	17580.527344
3254.519531	17802.947266
3253.222656	17785.339844
3251.924805	17763.869141
3250.626953	17711.462891
3249.329102	17726.751953
3248.030273	17728.501953
3246.732422	17695.458984
3245.432617	17929.078125
3244.133789	17768.503906
3242.833984	17886.113281
3241.534180	17839.542969
3240.234375	17959.009766
3238.933594	18169.128906
3237.632813	17933.421875
3236.331055	17994.904297
3235.030273	17828.773438
3233.728516	17566.302734
3232.426758	17785.902344
3231.124023	17947.578125
3229.821289	17841.335938
3228.518555	17846.875000
3227.215820	17883.226563
3225.912109	18002.361328
3224.608398	18079.085938
3223.303711	17830.496094
3222.000000	17945.705078
3220.695313	18003.146484
3219.389648	17985.544922
3218.084961	18012.179688
3216.779297	17765.802734
3215.473633	18007.742188
3214.166992	17922.890625
3212.860352	18062.855469
3211.553711	18041.412109
3210.246094	17875.955078
3208.939453	17720.171875
3207.631836	18005.921875
3206.323242	18024.800781
3205.015625	18239.359375
3203.707031	18074.037109
3202.397461	17745.791016
3201.088867	17989.015625
3199.779297	17637.935547
3198.468750	17942.392578
3197.159180	18170.072266
3195.848633	18062.445313
3194.538086	18104.234375
3193.226563	18015.814453
3191.916016	18032.707031
3190.603516	17953.908203
3189.291992	17672.343750
3187.979492	17922.656250
3186.666992	18006.480469
3185.354492	18013.787109
3184.041016	17789.804688
3182.727539	17841.107422
3181.414063	17827.425781
3180.099609	17840.488281
3178.785156	18197.287109
3177.470703	17935.326172
3176.156250	18188.857422
3174.840820	17995.714844
3173.525391	17877.070313
3172.208984	18088.468750
3170.893555	17811.570313
3169.576172	18091.519531
3168.259766	17870.023438
3166.942383	17881.121094
3165.625000	17922.697266
3164.307617	18006.156250
3162.989258	17893.425781
3161.670898	18077.757813
3160.352539	17904.148438
3159.033203	17840.992188
3157.714844	17768.351563
3156.394531	18015.304688
3155.075195	17877.996094
3153.754883	18027.839844
3152.434570	18213.728516
3151.113281	18196.185547
3149.791992	18106.453125
3148.470703	17895.191406
3147.149414	18120.808594
3145.827148	17894.449219
3144.504883	17905.464844
3143.182617	17963.917969
3141.859375	18031.826172
3140.536133	17864.492188
3139.212891	18070.828125
3137.888672	17886.494141
3136.564453	17960.037109
3135.240234	17978.585938
3133.915039	17894.814453
3132.589844	18038.382813
3131.264648	17856.158203
3129.939453	17874.705078
3128.613281	17808.064453
3127.287109	18004.498047
3125.959961	17977.585938
3124.632813	18164.425781
3123.305664	17906.771484
3121.978516	18048.162109
3120.650391	18055.279297
3119.322266	18054.833984
3117.993164	18186.638672
3116.665039	18091.712891
3115.335938	17991.164063
3114.005859	18036.037109
3112.676758	18177.152344
3111.346680	18204.972656
3110.015625	18198.818359
3108.685547	18147.394531
3107.354492	18169.539063
3106.022461	17974.857422
3104.691406	18228.871094
3103.359375	18060.644531
3102.027344	18256.109375
3100.694336	18097.369141
3099.361328	18047.923828
3098.028320	18115.226563
3096.695313	18178.730469
3095.361328	18104.830078
3094.027344	18046.015625
3092.692383	18118.888672
3091.357422	18342.164063
3090.022461	18117.886719
3088.687500	18089.187500
3087.351563	18150.701172
3086.015625	18129.519531
3084.678711	18236.068359
3083.342773	18374.486328
3082.005859	18338.242188
3080.667969	18403.369141
3079.331055	18389.648438
3077.993164	18407.826172
3076.654297	18420.365234
3075.315430	18517.281250
3073.976563	18482.917969
3072.637695	18472.933594
3071.298828	18564.138672
3069.958984	18155.103516
3068.618164	18208.878906
3067.278320	18245.773438
3065.937500	18383.740234
3064.595703	18587.148438
3063.254883	18388.152344
3061.913086	18402.511719
3060.571289	18493.546875
3059.228516	18423.728516
3057.885742	18312.814453
3056.542969	18370.158203
3055.200195	18464.841797
3053.856445	18309.156250
3052.511719	18407.542969
3051.167969	18604.841797
3049.823242	18482.830078
3048.478516	18508.312500
3047.132813	18309.875000
3045.788086	18633.851563
3044.441406	18526.859375
3043.095703	18662.308594
3041.749023	18501.296875
3040.402344	18728.003906
3039.055664	18725.421875
3037.708008	18672.546875
3036.360352	18515.402344
3035.011719	18438.392578
3033.663086	18260.898438
3032.314453	18414.746094
3030.965820	18594.568359
3029.616211	18506.443359
3028.266602	18476.009766
3026.916992	18445.587891
3025.566406	18448.636719
3024.215820	18546.458984
3022.865234	18504.888672
3021.513672	18344.457031
3020.162109	18793.207031
3018.809570	18606.787109
3017.458008	18617.207031
3016.105469	18557.101563
3014.751953	18497.023438
3013.399414	18366.488281
3012.045898	18668.083984
3010.691406	18680.320313
3009.336914	18653.625000
3007.982422	18376.777344
3006.627930	18817.021484
3005.272461	18679.175781
3003.916992	18508.062500
3002.561523	18538.820313
3001.205078	18636.191406
2999.848633	18724.261719
2998.492188	18490.394531
2997.134766	18465.634766
2995.777344	18476.015625
2994.419922	18381.015625
2993.061523	18476.425781
2991.703125	18368.533203
2990.344727	18469.439453
2988.985352	18487.183594
2987.625977	18181.792969
2986.266602	18397.115234
2984.906250	18651.089844
2983.545898	18478.720703
2982.185547	18216.042969
2980.824219	18541.796875
2979.462891	18616.638672
2978.101563	18754.115234
2976.739258	18594.818359
2975.376953	18616.154297
2974.014648	18416.439453
2972.651367	18610.914063
2971.288086	18608.291016
2969.924805	18484.183594
2968.560547	18566.240234
2967.196289	18201.181641
2965.832031	18503.986328
2964.466797	18304.619141
2963.101563	18620.119141
2961.736328	18588.076172
2960.370117	18666.302734
2959.003906	18619.564453
2957.637695	18785.904297
2956.270508	18573.888672
2954.903320	18569.423828
2953.535156	18704.447266
2952.167969	18766.007813
2950.799805	18407.433594
2949.430664	18689.119141
2948.062500	18735.962891
2946.692383	18923.935547
2945.323242	19038.507813
2943.953125	18870.847656
2942.583008	18897.445313
2941.212891	18891.060547
2939.841797	18772.988281
2938.470703	19019.248047
2937.099609	18782.240234
2935.727539	18971.656250
2934.355469	19157.318359
2932.982422	19053.943359
2931.609375	19089.570313
2930.236328	18925.937500
2928.863281	18886.648438
2927.489258	19243.835938
2926.115234	19136.902344
2924.740234	19044.626953
2923.366211	19165.998047
2921.990234	18858.378906
2920.615234	19200.533203
2919.239258	19108.324219
2917.863281	19054.458984
2916.486328	18905.796875
2915.109375	18857.472656
2913.732422	18958.621094
2912.355469	18830.128906
2910.977539	19242.744141
2909.599609	19168.878906
2908.220703	18912.962891
2906.841797	19267.001953
2905.462891	18976.603516
2904.083008	18962.910156
2902.703125	19258.460938
2901.323242	19264.707031
2899.942383	19105.492188
2898.561523	19242.644531
2897.180664	19452.421875
2895.798828	19140.654297
2894.416992	19228.648438
2893.035156	19075.074219
2891.652344	19244.738281
2890.269531	19167.462891
2888.886719	19217.250000
2887.502930	19125.501953
2886.119141	19287.724609
2884.735352	19243.146484
2883.350586	19216.716797
2881.965820	19175.798828
2880.581055	19345.093750
2879.195313	19045.103516
2877.809570	19330.255859
2876.422852	19077.490234
2875.036133	19179.654297
2873.649414	18952.382813
2872.262695	19235.460938
2870.875000	19205.455078
2869.487305	19251.419922
2868.098633	18984.564453
2866.709961	19032.363281
2865.321289	19259.046875
2863.931641	19312.169922
2862.541992	19293.015625
2861.152344	19102.310547
2859.761719	19097.656250
2858.371094	19076.755859
2856.980469	19079.322266
2855.588867	19148.636719
2854.197266	19001.478516
2852.805664	19216.833984
2851.413086	19156.259766
2850.020508	19245.306641
2848.627930	18973.929688
2847.234375	19127.824219
2845.840820	19002.486328
2844.447266	19053.662109
2843.052734	19002.205078
2841.658203	18851.787109
2840.262695	18818.392578
2838.867188	18617.722656
2837.471680	18787.613281
2836.075195	18883.705078
2834.679688	18568.119141
2833.282227	18701.951172
2831.885742	18693.783203
2830.488281	18865.234375
2829.089844	18887.552734
2827.692383	18785.984375
2826.293945	18619.847656
2824.894531	18909.572266
2823.496094	18757.835938
2822.096680	18676.119141
2820.696289	18759.404297
2819.296875	18794.246094
2817.895508	18726.912109
2816.495117	18650.650391
2815.093750	18543.970703
2813.692383	18408.687500
2812.290039	18817.769531
2810.888672	18490.949219
2809.485352	18728.005859
2808.083008	18471.140625
2806.679688	18541.732422
2805.276367	18560.429688
2803.872070	18816.894531
2802.467773	18511.992188
2801.063477	18632.531250
2799.658203	18520.763672
2798.252930	18630.521484
2796.847656	18609.871094
2795.441406	18767.750000
2794.035156	18627.494141
2792.627930	18778.150391
2791.220703	18682.554688
2789.813477	18742.162109
2788.406250	18582.429688
2786.998047	18674.117188
2785.589844	18608.927734
2784.180664	18750.445313
2782.771484	18694.173828
2781.362305	18807.103516
2779.952148	18773.986328
2778.541992	18849.457031
2777.131836	18887.521484
2775.720703	18822.378906
2774.309570	18913.785156
2772.897461	18921.570313
2771.486328	18861.794922
2770.074219	18869.585938
2768.661133	18685.468750
2767.248047	18968.640625
2765.834961	18738.410156
2764.420898	18623.703125
2763.006836	18723.837891
2761.592773	18894.908203
2760.177734	18538.945313
2758.762695	18897.994141
2757.347656	18973.126953
2755.931641	18833.699219
2754.515625	18956.664063
2753.099609	19021.089844
2751.682617	18943.753906
2750.265625	18694.650391
2748.847656	18808.666016
2747.430664	18745.595703
2746.011719	18949.802734
2744.593750	18899.109375
2743.174805	18945.734375
2741.754883	18705.830078
2740.335938	18918.677734
2738.916016	18908.691406
2737.495117	19057.757813
2736.075195	18897.562500
2734.653320	18869.919922
2733.232422	19094.814453
2731.810547	19123.626953
2730.388672	19034.166016
2728.965820	19066.505859
2727.542969	18904.769531
2726.120117	18760.748047
2724.697266	19032.933594
2723.273438	18866.031250
2721.848633	18903.648438
2720.423828	18932.437500
2718.999023	18948.876953
2717.574219	19032.230469
2716.148438	19201.812500
2714.722656	19172.402344
2713.295898	18967.025391
2711.870117	18837.402344
2710.442383	19033.240234
2709.015625	18905.417969
2707.587891	18877.865234
2706.159180	18894.265625
2704.731445	19070.558594
2703.301758	18870.820313
2701.873047	18964.482422
2700.443359	18949.230469
2699.013672	19081.441406
2697.583984	18862.585938
2696.153320	18966.675781
2694.721680	18947.923828
2693.291016	18832.726563
2691.859375	19045.439453
2690.426758	18854.902344
2688.995117	18748.570313
2687.562500	18675.576172
2686.128906	18825.054688
2684.695313	18871.146484
2683.261719	18782.414063
2681.828125	18993.007813
2680.393555	19061.761719
2678.958008	18957.300781
2677.523438	19040.017578
2676.087891	18605.154297
2674.651367	18972.837891
2673.215820	19008.300781
2671.778320	18785.166016
2670.341797	18684.410156
2668.904297	18894.537109
2667.466797	19066.150391
2666.028320	18906.050781
2664.589844	18763.478516
2663.151367	18901.843750
2661.711914	18965.142578
2660.272461	18937.738281
2658.833008	18739.509766
2657.392578	18733.083984
2655.952148	18874.759766
2654.510742	18901.394531
2653.069336	18952.396484
2651.627930	18815.339844
2650.185547	18925.513672
2648.743164	18856.394531
2647.300781	18590.718750
2645.857422	18787.824219
2644.414063	18856.156250
2642.970703	19016.585938
2641.526367	18924.927734
2640.082031	18968.839844
2638.636719	19009.255859
2637.191406	18985.392578
2635.746094	18916.394531
2634.299805	18942.900391
2632.853516	19066.572266
2631.406250	18862.277344
2629.959961	18824.593750
2628.511719	18932.589844
2627.064453	19019.726563
2625.616211	18975.093750
2624.167969	19051.775391
2622.718750	18984.632813
2621.269531	18865.564453
2619.819336	19148.253906
2618.370117	19108.828125
2616.918945	19266.708984
2615.468750	19277.443359
2614.017578	19189.578125
2612.566406	19169.195313
2611.114258	19231.806641
2609.662109	19199.322266
2608.209961	19239.425781
2606.756836	19113.664063
2605.303711	19062.228516
2603.849609	18979.736328
2602.395508	19100.982422
2600.941406	19173.841797
2599.486328	19056.871094
2598.031250	18905.458984
2596.576172	18726.527344
2595.120117	18837.330078
2593.664063	19010.126953
2592.207031	18836.468750
2590.750000	19059.134766
2589.292969	19109.453125
2587.834961	19027.156250
2586.376953	19156.640625
2584.918945	18855.796875
2583.459961	18937.080078
2582.000977	19009.716797
2580.541016	18826.074219
2579.081055	19254.597656
2577.621094	19119.111328
2576.161133	18971.662109
2574.699219	19054.498047
2573.238281	19046.259766
2571.776367	18981.355469
2570.314453	18895.884766
2568.851563	18844.777344
2567.389648	18918.953125
2565.925781	18764.939453
2564.462891	18919.697266
2562.998047	18909.779297
2561.534180	19019.851563
2560.069336	19153.859375
2558.604492	19217.552734
2557.138672	19037.992188
2555.672852	18870.507813
2554.207031	19035.224609
2552.740234	18903.763672
2551.273438	18907.542969
2549.806641	19034.484375
2548.338867	18891.146484
2546.871094	19000.927734
2545.402344	18849.119141
2543.933594	19001.574219
2542.464844	18952.347656
2540.995117	18822.865234
2539.525391	18891.533203
2538.054688	18914.068359
2536.583984	19037.291016
2535.113281	18935.210938
2533.641602	18826.359375
2532.169922	18703.916016
2530.698242	19035.074219
2529.225586	18852.974609
2527.752930	18766.400391
2526.279297	18938.835938
2524.805664	18889.751953
2523.332031	18871.343750
2521.857422	18810.380859
2520.382813	18773.275391
2518.908203	18722.574219
2517.432617	18779.070313
2515.956055	18854.244141
2514.480469	18704.937500
2513.003906	18866.781250
2511.526367	18865.394531
2510.049805	18775.658203
2508.571289	18850.728516
2507.093750	18949.531250
2505.615234	18812.300781
2504.135742	18709.083984
2502.657227	18940.197266
2501.177734	18916.728516
2499.697266	18969.587891
2498.216797	18740.957031
2496.736328	18865.027344
2495.254883	18877.181641
2493.773438	18723.291016
2492.291992	18787.980469
2490.809570	18813.687500
2489.327148	18922.335938
2487.843750	18837.976563
2486.360352	19159.763672
2484.876953	18720.130859
2483.392578	18588.527344
2481.908203	18695.392578
2480.423828	18715.994141
2478.938477	18684.193359
2477.453125	18833.185547
2475.966797	18770.964844
2474.480469	18881.017578
2472.993164	18788.421875
2471.506836	18849.464844
2470.018555	18864.914063
2468.531250	18765.640625
2467.042969	18804.710938
2465.553711	18963.472656
2464.065430	18997.412109
2462.576172	18857.753906
2461.085938	19075.341797
2459.595703	18876.777344
2458.105469	18775.982422
2456.614258	18757.728516
2455.123047	19003.724609
2453.630859	18763.308594
2452.139648	18903.195313
2450.646484	18893.328125
2449.154297	18799.396484
2447.661133	18966.056641
2446.166992	18682.251953
2444.672852	18828.693359
2443.178711	18964.978516
2441.683594	18758.630859
2440.188477	18846.175781
2438.693359	18700.380859
2437.197266	18858.367188
2435.701172	18643.861328
2434.205078	18721.277344
2432.708008	18773.501953
2431.209961	18959.794922
2429.712891	18919.759766
2428.213867	18779.218750
2426.715820	18866.541016
2425.216797	18880.138672
2423.717773	18830.113281
2422.217773	18803.541016
2420.717773	18773.634766
2419.216797	18932.767578
2417.715820	18929.597656
2416.214844	18700.714844
2414.713867	18950.001953
2413.210938	18781.386719
2411.708984	18631.232422
2410.206055	18825.222656
2408.703125	18523.177734
2407.199219	18648.648438
2405.695313	18665.570313
2404.191406	18557.341797
2402.686523	18647.671875
2401.181641	18751.292969
2399.675781	18586.435547
2398.169922	18716.685547
2396.664063	18716.888672
2395.157227	18545.496094
2393.650391	18715.625000
2392.142578	18754.121094
2390.634766	18609.480469
2389.126953	18681.265625
2387.618164	18606.593750
2386.109375	18784.796875
2384.599609	18828.205078
2383.089844	18815.064453
2381.580078	18923.261719
2380.069336	18675.798828
2378.558594	18697.587891
2377.047852	18691.128906
2375.536133	18525.269531
2374.023438	18596.875000
2372.511719	18568.867188
2370.998047	18486.119141
2369.485352	18549.380859
2367.971680	18610.947266
2366.458008	18674.140625
2364.943359	18637.851563
2363.428711	18585.009766
2361.913086	18399.667969
2360.397461	18552.275391
2358.881836	18355.441406
2357.365234	18552.671875
2355.848633	18652.160156
2354.332031	18663.910156
2352.814453	18411.005859
2351.295898	18421.154297
2349.778320	18504.035156
2348.258789	18500.927734
2346.740234	18423.466797
2345.220703	18580.613281
2343.701172	18630.332031
2342.180664	18448.875000
2340.660156	18589.382813
2339.138672	18648.955078
2337.617188	18571.564453
2336.095703	18502.458984
2334.573242	18464.714844
2333.050781	18390.724609
2331.528320	18605.181641
2330.004883	18223.076172
2328.480469	18402.873047
2326.957031	18739.019531
2325.431641	18520.162109
2323.907227	18367.253906
2322.381836	18250.623047
2320.856445	18573.296875
2319.330078	18353.054688
2317.803711	18379.564453
2316.276367	18373.181641
2314.749023	18269.839844
2313.221680	18449.142578
2311.693359	18306.408203
2310.165039	18319.750000
2308.635742	18526.804688
2307.106445	18357.896484
2305.577148	18512.322266
2304.046875	18553.478516
2302.516602	18584.769531
2300.985352	18481.597656
2299.454102	18388.310547
2297.922852	18442.558594
2296.390625	18293.623047
2294.858398	18308.552734
2293.325195	18346.398438
2291.791992	18336.748047
2290.258789	18117.611328
2288.724609	18353.455078
2287.190430	18191.675781
2285.655273	18023.439453
2284.120117	18089.083984
2282.583984	18429.292969
2281.048828	18216.998047
2279.511719	18320.111328
2277.975586	18179.814453
2276.438477	18331.865234
2274.900391	18255.298828
2273.362305	18110.224609
2271.824219	18293.171875
2270.285156	18285.175781
2268.746094	18128.789063
2267.206055	18322.994141
2265.666016	18088.439453
2264.125977	18194.560547
2262.584961	18207.771484
2261.043945	18186.771484
2259.502930	18173.921875
2257.960938	18338.505859
2256.417969	18174.275391
2254.875000	18070.326172
2253.332031	18192.513672
2251.789063	18018.687500
2250.245117	18217.228516
2248.700195	18266.142578
2247.155273	18206.166016
2245.610352	18373.634766
2244.064453	18185.361328
2242.518555	18260.203125
2240.972656	18149.964844
2239.425781	18156.619141
2237.877930	18280.072266
2236.331055	17999.613281
2234.783203	18054.939453
2233.234375	18189.666016
2231.685547	18236.808594
2230.136719	18136.486328
2228.586914	18063.750000
2227.037109	18148.126953
2225.486328	18154.750000
2223.935547	17976.857422
2222.384766	18066.041016
2220.833008	18252.238281
2219.281250	18194.130859
2217.728516	18081.078125
2216.175781	18013.343750
2214.622070	18079.769531
2213.068359	18451.503906
2211.514648	18196.361328
2209.959961	18083.447266
2208.405273	18012.562500
2206.850586	18077.281250
2205.294922	18187.140625
2203.738281	18125.957031
2202.181641	18045.453125
2200.625000	18210.044922
2199.068359	18106.992188
2197.510742	18123.232422
2195.952148	18155.574219
2194.393555	18274.865234
2192.834961	18212.148438
2191.275391	18170.388672
2189.715820	18378.087891
2188.155273	17961.437500
2186.595703	18249.501953
2185.034180	18358.925781
2183.472656	18199.816406
2181.911133	18328.478516
2180.349609	18126.074219
2178.787109	18132.601563
2177.223633	18187.300781
2175.660156	18145.638672
2174.096680	18140.916016
2172.532227	18139.400391
2170.967773	18372.109375
2169.403320	18397.798828
2167.837891	18000.166016
2166.271484	18066.009766
2164.705078	18455.542969
2163.138672	18236.042969
2161.572266	18527.617188
2160.003906	18003.953125
2158.436523	18196.175781
2156.868164	18061.791016
2155.299805	18125.886719
2153.730469	17989.988281
2152.161133	18202.798828
2150.590820	18174.070313
2149.020508	17972.724609
2147.450195	18298.826172
2145.878906	17833.947266
2144.307617	18343.585938
2142.735352	18332.414063
2141.163086	18174.382813
