#Wave		#Intensity
3550.188477	391103.718750
3548.956055	390940.687500
3547.724609	389893.718750
3546.492188	389311.531250
3545.258789	391018.250000
3544.026367	390051.218750
3542.792969	391522.906250
3541.559570	392025.281250
3540.326172	391866.218750
3539.091797	392502.468750
3537.857422	391444.406250
3536.623047	392320.312500
3535.388672	391640.718750
3534.153320	389469.656250
3532.917969	389752.000000
3531.682617	389373.906250
3530.446289	388888.312500
3529.210938	389958.312500
3527.974609	389442.281250
3526.737305	389123.281250
3525.500977	390482.593750
3524.263672	390749.750000
3523.026367	390747.000000
3521.788086	392088.718750
3520.550781	392213.312500
3519.312500	392216.187500
3518.074219	390257.187500
3516.834961	393119.406250
3515.595703	390601.843750
3514.356445	392000.343750
3513.117188	391806.625000
3511.876953	392483.437500
3510.637695	390678.468750
3509.396484	392067.468750
3508.156250	393844.281250
3506.915039	392659.000000
3505.673828	395490.500000
3504.432617	392376.406250
3503.191406	392944.656250
3501.949219	392993.218750
3500.707031	394452.062500
3499.464844	394352.718750
3498.221680	394196.812500
3496.978516	394937.468750
3495.735352	395496.093750
3494.492188	394920.093750
3493.248047	394118.281250
3492.003906	395632.875000
3490.759766	395666.218750
3489.514648	397992.437500
3488.269531	397000.968750
3487.024414	396451.312500
3485.779297	396851.093750
3484.533203	396702.562500
3483.287109	396896.562500
3482.041016	397223.312500
3480.794922	396231.000000
3479.547852	396153.062500
3478.300781	395720.843750
3477.053711	396403.562500
3475.805664	397890.687500
3474.557617	397532.687500
3473.309570	396718.281250
3472.061523	396547.562500
3470.812500	398439.218750
3469.563477	397008.062500
3468.314453	397646.968750
3467.064453	397829.562500
3465.815430	397999.968750
3464.565430	397678.343750
3463.314453	397146.031250
3462.064453	396084.031250
3460.813477	397420.312500
3459.561523	398433.000000
3458.310547	397000.250000
3457.058594	398662.187500
3455.806641	399365.031250
3454.554688	398628.406250
3453.301758	399932.062500
3452.048828	400373.593750
3450.795898	397343.562500
3449.542969	397665.218750
3448.289063	399117.906250
3447.035156	397477.218750
3445.781250	398575.031250
3444.526367	399308.125000
3443.272461	399848.843750
3442.016602	398907.250000
3440.761719	398195.968750
3439.505859	400361.718750
3438.250000	399608.375000
3436.994141	398653.500000
3435.738281	398635.968750
3434.481445	399451.312500
3433.224609	398195.406250
3431.966797	398870.656250
3430.709961	398459.687500
3429.452148	398420.031250
3428.194336	397326.906250
3426.935547	397927.750000
3425.676758	397200.062500
3424.417969	397840.468750
3423.159180	397210.718750
3421.899414	398225.406250
3420.639648	398213.468750
3419.379883	398042.093750
3418.120117	396448.718750
3416.859375	397727.343750
3415.598633	397134.031250
3414.336914	396718.062500
3413.076172	395271.468750
3411.814453	396103.406250
3410.552734	397485.906250
3409.290039	397036.218750
3408.027344	395960.437500
3406.764648	396286.437500
3405.501953	394611.062500
3404.238281	395968.281250
3402.974609	394263.812500
3401.710938	396617.406250
3400.447266	394633.500000
3399.182617	393581.437500
3397.917969	393968.656250
3396.653320	394067.968750
3395.387695	392959.062500
3394.122070	395948.187500
3392.856445	395662.156250
3391.589844	392404.531250
3390.323242	392902.250000
3389.056641	393568.093750
3387.790039	393146.000000
3386.522461	393264.750000
3385.254883	394496.312500
3383.987305	392110.187500
3382.719727	393323.562500
3381.451172	394829.218750
3380.182617	394351.750000
3378.913086	394171.125000
3377.644531	392436.125000
3376.375000	392109.625000
3375.105469	393449.593750
3373.834961	391555.718750
3372.564453	392312.281250
3371.293945	390223.812500
3370.023438	391335.750000
3368.751953	392143.031250
3367.480469	392801.843750
3366.208984	393926.125000
3364.936523	393149.656250
3363.664063	391325.937500
3362.391602	389719.937500
3361.119141	389916.937500
3359.845703	389958.031250
3358.572266	391018.125000
3357.298828	390034.187500
3356.024414	390400.187500
3354.750000	391305.656250
3353.475586	389629.031250
3352.201172	390983.093750
3350.925781	389937.031250
3349.650391	391012.875000
3348.374023	391785.156250
3347.098633	392568.875000
3345.822266	394467.281250
3344.545898	394103.656250
3343.268555	392307.156250
3341.991211	391328.968750
3340.713867	391463.281250
3339.436523	392860.625000
3338.158203	389400.375000
3336.879883	389289.468750
3335.601563	391004.250000
3334.322266	390488.625000
3333.042969	392006.031250
3331.763672	390833.156250
3330.484375	392843.968750
3329.204102	391114.437500
3327.923828	391387.250000
3326.643555	393745.375000
3325.362305	392798.531250
3324.081055	392810.093750
3322.799805	389458.531250
3321.517578	392192.718750
3320.235352	389426.156250
3318.953125	391074.656250
3317.670898	391415.125000
3316.387695	392649.500000
3315.104492	392079.843750
3313.821289	392235.906250
3312.537109	392689.031250
3311.252930	393984.406250
3309.968750	394438.812500
3308.684570	394043.031250
3307.399414	395046.031250
3306.114258	393132.781250
3304.828125	392399.656250
3303.542969	392851.750000
3302.256836	391796.906250
3300.970703	391860.531250
3299.683594	391493.000000
3298.396484	392188.468750
3297.109375	393039.593750
3295.821289	392979.875000
3294.534180	394999.750000
3293.246094	394733.000000
3291.957031	393741.625000
3290.668945	393977.687500
3289.379883	395481.250000
3288.089844	393775.812500
3286.800781	393454.906250
3285.510742	393616.718750
3284.220703	396826.906250
3282.929688	394504.031250
3281.639648	395886.531250
3280.348633	397427.781250
3279.056641	395887.562500
3277.765625	397315.312500
3276.473633	397607.781250
3275.180664	396847.312500
3273.888672	398895.156250
3272.595703	396577.593750
3271.302734	397787.906250
3270.008789	397340.343750
3268.715820	397106.343750
3267.421875	396511.656250
3266.126953	397286.281250
3264.832031	396340.812500
3263.538086	395812.437500
3262.242188	395507.156250
3260.947266	396792.656250
3259.651367	396932.718750
3258.355469	397975.125000
3257.058594	396773.000000
3255.761719	396275.968750
3254.464844	396319.062500
3253.167969	397006.437500
3251.870117	397699.218750
3250.572266	397374.375000
3249.274414	398437.937500
3247.975586	396127.718750
3246.676758	396713.593750
3245.377930	396993.906250
3244.079102	396723.468750
3242.779297	396878.000000
3241.479492	397248.687500
3240.178711	397223.406250
3238.878906	397560.937500
3237.577148	396389.375000
3236.276367	397386.593750
3234.974609	398263.750000
3233.673828	395658.093750
3232.371094	396562.156250
3231.069336	397113.031250
3229.766602	395021.875000
3228.463867	395391.687500
3227.160156	395597.562500
3225.856445	395597.281250
3224.552734	394709.468750
3223.249023	395186.625000
3221.944336	396779.593750
3220.639648	395099.375000
3219.334961	395127.843750
3218.029297	394439.000000
3216.723633	395430.687500
3215.417969	395432.000000
3214.111328	395907.937500
3212.805664	394228.062500
3211.498047	395143.781250
3210.191406	395373.500000
3208.883789	393616.062500
3207.576172	393899.687500
3206.268555	394870.156250
3204.959961	395335.531250
3203.651367	394385.125000
3202.342773	394856.062500
3201.033203	395332.500000
3199.723633	395893.000000
3198.414063	393264.500000
3197.103516	394214.062500
3195.792969	393634.656250
3194.482422	394281.031250
3193.171875	393824.312500
3191.860352	394175.500000
3190.548828	393692.125000
3189.236328	392359.468750
3187.923828	393010.937500
3186.611328	392927.718750
3185.298828	391880.906250
3183.985352	392770.812500
3182.671875	394522.125000
3181.358398	393209.968750
3180.043945	392824.781250
3178.730469	393560.718750
3177.415039	391988.000000
3176.100586	392217.875000
3174.785156	391648.000000
3173.469727	391400.781250
3172.153320	389944.312500
3170.836914	390559.468750
3169.520508	388888.343750
3168.204102	389406.156250
3166.886719	390100.937500
3165.569336	388432.843750
3164.251953	388609.343750
3162.933594	388795.218750
3161.615234	389371.281250
3160.296875	387946.468750
3158.977539	387618.437500
3157.658203	388430.156250
3156.338867	385948.875000
3155.019531	387523.093750
3153.699219	388516.656250
3152.378906	387719.156250
3151.057617	388164.812500
3149.736328	389678.000000
3148.415039	388793.281250
3147.093750	389154.687500
3145.771484	388568.500000
3144.449219	388462.781250
3143.125977	388047.718750
3141.803711	387830.125000
3140.480469	387808.000000
3139.156250	385764.250000
3137.833008	384876.062500
3136.508789	385093.343750
3135.183594	384567.593750
3133.859375	385324.718750
3132.534180	384838.843750
3131.208984	385326.531250
3129.882813	385115.343750
3128.556641	383395.625000
3127.230469	385132.187500
3125.904297	386029.750000
3124.577148	385947.031250
3123.250000	386403.281250
3121.921875	386144.625000
3120.593750	384320.937500
3119.265625	386166.093750
3117.937500	385374.750000
3116.608398	386155.281250
3115.279297	385800.437500
3113.950195	385891.312500
3112.620117	386352.031250
3111.290039	387520.187500
3109.959961	386276.562500
3108.628906	386527.406250
3107.297852	385326.031250
3105.966797	385116.843750
3104.634766	384992.531250
3103.302734	386411.625000
3101.970703	387016.093750
3100.637695	385277.093750
3099.304688	383680.125000
3097.971680	385239.187500
3096.638672	385310.531250
3095.304688	386038.562500
3093.970703	385468.062500
3092.635742	386001.875000
3091.300781	385929.875000
3089.965820	386297.812500
3088.630859	386592.218750
3087.294922	387136.375000
3085.958984	387965.812500
3084.622070	386304.218750
3083.286133	385907.156250
3081.949219	386426.406250
3080.611328	387007.281250
3079.274414	386756.562500
3077.936523	387140.031250
3076.597656	387050.625000
3075.258789	386805.562500
3073.919922	385656.968750
3072.581055	386771.125000
3071.241211	387047.125000
3069.901367	388089.156250
3068.561523	386457.968750
3067.221680	387963.937500
3065.880859	387615.812500
3064.539063	389008.437500
3063.198242	388381.343750
3061.856445	387644.125000
3060.514648	389448.937500
3059.171875	387877.812500
3057.829102	387468.250000
3056.486328	386010.375000
3055.142578	388239.718750
3053.798828	388269.250000
3052.455078	387970.031250
3051.111328	387868.812500
3049.766602	387681.750000
3048.421875	388987.781250
3047.076172	388375.031250
3045.730469	389163.437500
3044.384766	387038.375000
3043.039063	388031.750000
3041.692383	388213.750000
3040.345703	387324.000000
3038.998047	386645.187500
3037.650391	385871.656250
3036.302734	387556.718750
3034.955078	386632.437500
3033.606445	385872.375000
3032.257813	385901.687500
3030.908203	386911.437500
3029.559570	386263.343750
3028.209961	388144.625000
3026.859375	385968.156250
3025.508789	385664.468750
3024.158203	386165.562500
3022.807617	385155.906250
3021.456055	382718.281250
3020.104492	383865.812500
3018.752930	383568.375000
3017.400391	382378.218750
3016.047852	383873.750000
3014.695313	381847.281250
3013.341797	383264.281250
3011.988281	383970.312500
3010.633789	385272.937500
3009.280273	384143.156250
3007.925781	384273.906250
3006.570313	384563.875000
3005.215820	382916.343750
3003.860352	385108.125000
3002.503906	384190.562500
3001.148438	384394.968750
2999.791016	384671.406250
2998.434570	382653.750000
2997.077148	382153.625000
2995.719727	381270.906250
2994.362305	382466.437500
2993.003906	380403.031250
2991.645508	381086.281250
2990.287109	381351.687500
2988.927734	383027.906250
2987.568359	380471.312500
2986.208984	381079.906250
2984.848633	383077.843750
2983.488281	382456.593750
2982.127930	382031.156250
2980.766602	383876.093750
2979.405273	383463.312500
2978.043945	381743.812500
2976.681641	381797.906250
2975.319336	382143.062500
2973.957031	382515.625000
2972.593750	382598.875000
2971.230469	381233.062500
2969.867188	381189.468750
2968.502930	380047.250000
2967.138672	382412.156250
2965.774414	383008.281250
2964.409180	383365.031250
2963.043945	384276.781250
2961.677734	382787.593750
2960.312500	384402.750000
2958.946289	383375.281250
2957.579102	384758.000000
2956.212891	385660.781250
2954.845703	385351.437500
2953.477539	385653.375000
2952.109375	385736.781250
2950.741211	384840.468750
2949.373047	385776.781250
2948.003906	384965.156250
2946.634766	386661.656250
2945.265625	385137.187500
2943.895508	386746.656250
2942.525391	387411.875000
2941.154297	386796.593750
2939.784180	386533.125000
2938.413086	389506.062500
2937.041016	390385.781250
2935.668945	388948.687500
2934.296875	389094.531250
2932.924805	388675.156250
2931.551758	388853.812500
2930.178711	390096.156250
2928.804688	389687.687500
2927.430664	391398.656250
2926.056641	390719.656250
2924.682617	392066.093750
2923.307617	391120.656250
2921.932617	391800.062500
2920.556641	389439.000000
2919.180664	389613.062500
2917.804688	389754.156250
2916.428711	388863.062500
2915.051758	387270.500000
2913.674805	386763.125000
2912.296875	387635.281250
2910.918945	386670.687500
2909.541016	386881.281250
2908.162109	387565.093750
2906.783203	388898.437500
2905.404297	387062.593750
2904.024414	388755.562500
2902.644531	387784.593750
2901.264648	387783.375000
2899.883789	388416.656250
2898.503906	386083.093750
2897.122070	387072.562500
2895.741211	386520.875000
2894.358398	387024.718750
2892.976563	387395.718750
2891.593750	387882.687500
2890.210938	388049.906250
2888.828125	387218.968750
2887.444336	389581.375000
2886.060547	389174.812500
2884.676758	388461.937500
2883.291992	389308.468750
2881.907227	388579.531250
2880.521484	388443.406250
2879.136719	388017.468750
2877.750000	387162.468750
2876.364258	386201.031250
2874.977539	385694.343750
2873.590820	385348.968750
2872.203125	386559.750000
2870.816406	386337.250000
2869.427734	384716.875000
2868.040039	384344.781250
2866.651367	382676.781250
2865.262695	382466.125000
2863.873047	383175.125000
2862.483398	383166.687500
2861.093750	383143.750000
2859.703125	381739.656250
2858.312500	381361.406250
2856.921875	381802.562500
2855.530273	381543.468750
2854.138672	379711.718750
2852.747070	379700.218750
2851.354492	380332.281250
2849.961914	382333.750000
2848.568359	380206.125000
2847.175781	379852.093750
2845.782227	376103.312500
2844.387695	377156.625000
2842.993164	374628.937500
2841.598633	376283.093750
2840.204102	372043.906250
2838.808594	369956.312500
2837.412109	371043.781250
2836.016602	368450.375000
2834.620117	368365.656250
2833.223633	369378.937500
2831.826172	368717.250000
2830.428711	367477.500000
2829.031250	368306.968750
2827.632813	365263.593750
2826.234375	364953.406250
2824.835938	367080.125000
2823.436523	365214.218750
2822.037109	365465.500000
2820.637695	365512.250000
2819.237305	365349.187500
2817.836914	364949.593750
2816.435547	364168.500000
2815.034180	361820.375000
2813.632813	362795.406250
2812.231445	363472.750000
2810.829102	361853.125000
2809.426758	362958.000000
2808.023438	363267.875000
2806.620117	363581.187500
2805.216797	362025.562500
2803.812500	363454.531250
2802.408203	362682.500000
2801.003906	362430.781250
2799.598633	361419.937500
2798.193359	360823.875000
2796.788086	362349.406250
2795.381836	360728.656250
2793.975586	361726.875000
2792.568359	360802.875000
2791.161133	361631.031250
2789.753906	363537.750000
2788.346680	360804.125000
2786.938477	362326.781250
2785.529297	360897.468750
2784.121094	361546.218750
2782.711914	361168.656250
2781.302734	360235.625000
2779.892578	360764.687500
2778.482422	360177.437500
2777.071289	362855.781250
2775.661133	361734.531250
2774.250000	360476.843750
2772.837891	360663.593750
2771.425781	359179.156250
2770.013672	359485.156250
2768.601563	360636.718750
2767.188477	359688.000000
2765.775391	359943.781250
2764.361328	360522.562500
2762.947266	360112.281250
2761.533203	360454.625000
2760.118164	359176.906250
2758.703125	360131.218750
2757.288086	360898.781250
2755.872070	359657.250000
2754.456055	359568.375000
2753.039063	360331.875000
2751.623047	359927.468750
2750.205078	359884.562500
2748.788086	360477.312500
2747.370117	358370.062500
2745.952148	358819.437500
2744.533203	360204.593750
2743.114258	361044.187500
2741.695313	361133.468750
2740.275391	360315.625000
2738.855469	359752.718750
2737.435547	359101.687500
2736.014648	360108.156250
2734.593750	360778.500000
2733.171875	359195.187500
2731.750000	359150.312500
2730.328125	359875.000000
2728.906250	360158.125000
2727.483398	358421.156250
2726.059570	358000.718750
2724.636719	358622.562500
2723.212891	359164.718750
2721.788086	359488.031250
2720.364258	356993.750000
2718.939453	358583.906250
2717.513672	357283.312500
2716.087891	356759.750000
2714.662109	358184.937500
2713.235352	356735.718750
2711.809570	355783.281250
2710.381836	356540.968750
2708.955078	357672.750000
2707.527344	356209.125000
2706.098633	357118.906250
2704.670898	357149.625000
2703.241211	357110.031250
2701.812500	356489.093750
2700.382813	356235.406250
2698.953125	355876.468750
2697.522461	354362.906250
2696.092773	355385.375000
2694.661133	353979.625000
2693.230469	354335.218750
2691.798828	354929.000000
2690.366211	353767.937500
2688.933594	354186.281250
2687.500977	354488.750000
2686.068359	353868.031250
2684.634766	352976.125000
2683.201172	352882.937500
2681.766602	353040.031250
2680.332031	354035.125000
2678.897461	350997.562500
2677.461914	352909.000000
2676.026367	353504.625000
2674.590820	354250.250000
2673.154297	351855.125000
2671.717773	352969.343750
2670.281250	351971.250000
2668.843750	350269.906250
2667.405273	352827.375000
2665.967773	351555.937500
2664.529297	351551.906250
2663.089844	350958.218750
2661.651367	349020.093750
2660.211914	349919.812500
2658.771484	348193.781250
2657.331055	347233.656250
2655.890625	347925.687500
2654.450195	348427.500000
2653.008789	348007.781250
2651.567383	349881.125000
2650.125000	347597.031250
2648.682617	349238.062500
2647.239258	348362.593750
2645.796875	348498.062500
2644.353516	348838.625000
2642.909180	347843.875000
2641.464844	348785.656250
2640.020508	349582.750000
2638.575195	349083.531250
2637.129883	349091.625000
2635.684570	348439.906250
2634.238281	347161.875000
2632.791992	346944.750000
2631.345703	347851.906250
2629.898438	347913.875000
2628.451172	347915.125000
2627.002930	345813.437500
2625.554688	348118.500000
2624.106445	348233.937500
2622.657227	347883.281250
2621.208008	347378.625000
2619.757813	348283.593750
2618.308594	347635.343750
2616.857422	346847.218750
2615.407227	347249.781250
2613.956055	346669.625000
2612.504883	345614.187500
2611.052734	346875.906250
2609.600586	346465.562500
2608.147461	345616.500000
2606.695313	345237.718750
2605.241211	345969.593750
2603.788086	345390.562500
2602.333984	345654.156250
2600.879883	345938.312500
2599.424805	343896.500000
2597.969727	344315.406250
2596.514648	344002.906250
2595.058594	343693.968750
2593.602539	344036.687500
2592.145508	344324.031250
2590.688477	343498.312500
2589.231445	344557.218750
2587.773438	343807.531250
2586.315430	343676.218750
2584.857422	342224.906250
2583.398438	342124.968750
2581.939453	341791.062500
2580.479492	342561.406250
2579.019531	342562.750000
2577.559570	340661.312500
2576.098633	341140.812500
2574.637695	341121.843750
2573.176758	341152.625000
2571.714844	339677.437500
2570.252930	340513.656250
2568.790039	339749.843750
2567.327148	340312.718750
2565.864258	337890.500000
2564.400391	339307.531250
2562.936523	338109.156250
2561.471680	338664.906250
2560.007813	338899.875000
2558.541992	338461.375000
2557.077148	338798.968750
2555.611328	337549.000000
2554.144531	336886.812500
2552.678711	336594.593750
2551.210938	337512.250000
2549.744141	335798.437500
2548.276367	336748.250000
2546.808594	336321.156250
2545.339844	337265.156250
2543.871094	335305.218750
2542.402344	334021.062500
2540.932617	334454.125000
2539.462891	335067.937500
2537.992188	334447.093750
2536.521484	333736.093750
2535.050781	332269.531250
2533.579102	331422.906250
2532.107422	331659.625000
2530.635742	332225.281250
2529.163086	331880.343750
2527.690430	332215.531250
2526.216797	330758.187500
2524.743164	330621.593750
2523.269531	330481.656250
2521.794922	331133.343750
2520.320313	330302.250000
2518.844727	331823.125000
2517.370117	331225.250000
2515.893555	330680.406250
2514.417969	330565.937500
2512.941406	329054.250000
2511.463867	329659.031250
2509.986328	328523.750000
2508.508789	328628.937500
2507.031250	328501.406250
2505.552734	328850.937500
2504.073242	329315.687500
2502.594727	328655.187500
2501.114258	327779.531250
2499.634766	328269.531250
2498.154297	328153.968750
2496.673828	328009.593750
2495.192383	327355.156250
2493.710938	327348.250000
2492.229492	327905.312500
2490.747070	327070.125000
2489.264648	328178.843750
2487.781250	328706.437500
2486.297852	328169.375000
2484.814453	327845.718750
2483.330078	326854.156250
2481.845703	326634.062500
2480.360352	327000.625000
2478.875000	325278.187500
2477.389648	325634.718750
2475.903320	325376.187500
2474.416992	325551.750000
2472.930664	324960.718750
2471.443359	325740.468750
2469.956055	325814.437500
2468.467773	326477.093750
2466.979492	324817.062500
2465.491211	325054.687500
2464.001953	324708.937500
2462.512695	325145.250000
2461.022461	325650.406250
2459.532227	323999.281250
2458.041992	324133.906250
2456.550781	323472.156250
2455.059570	324249.750000
2453.568359	324934.343750
2452.076172	323885.906250
2450.583008	324043.812500
2449.090820	324697.562500
2447.597656	323463.312500
2446.103516	322685.062500
2444.609375	323431.000000
2443.115234	323398.843750
2441.621094	320819.312500
2440.125977	320378.156250
2438.629883	321603.781250
2437.133789	321058.562500
2435.637695	320746.750000
2434.141602	319678.718750
2432.644531	320368.312500
2431.146484	321220.125000
2429.648438	320062.187500
2428.150391	320072.562500
2426.652344	319814.875000
2425.153320	318187.593750
2423.654297	317749.656250
2422.154297	317484.312500
2420.654297	317712.687500
2419.153320	317715.093750
2417.652344	317617.093750
2416.151367	317589.343750
2414.649414	317026.718750
2413.147461	315934.593750
2411.645508	316346.593750
2410.142578	315617.593750
2408.639648	316081.156250
2407.135742	315606.281250
2405.631836	314857.875000
2404.126953	314632.093750
2402.623047	315987.750000
2401.117188	314402.593750
2399.612305	314883.906250
2398.106445	313433.156250
2396.599609	313544.468750
2395.093750	313517.437500
2393.585938	314020.031250
2392.079102	314039.437500
2390.571289	314386.750000
2389.062500	313746.968750
2387.554688	313268.875000
2386.044922	312012.531250
2384.536133	312461.312500
2383.026367	311877.437500
2381.515625	312116.562500
2380.005859	310752.000000
2378.494141	311127.437500
2376.983398	310348.375000
2375.471680	310137.562500
2373.959961	309905.250000
2372.447266	309168.500000
2370.934570	308496.812500
2369.420898	308916.875000
2367.907227	308736.375000
2366.393555	310034.750000
2364.878906	308826.406250
2363.364258	308031.250000
2361.848633	308570.000000
2360.333008	308381.406250
2358.817383	308557.125000
2357.300781	309264.093750
2355.784180	307792.843750
2354.267578	307998.281250
2352.750000	306777.812500
2351.231445	305672.062500
2349.713867	305727.343750
2348.194336	306137.937500
2346.675781	305816.281250
2345.156250	304918.281250
2343.636719	305533.437500
2342.116211	307109.156250
2340.595703	304752.281250
2339.074219	305094.625000
2337.552734	306032.343750
2336.031250	304165.656250
2334.508789	304733.718750
2332.986328	303277.125000
2331.462891	304019.750000
2329.939453	302822.687500
2328.416016	302491.031250
2326.891602	302964.750000
2325.367188	301395.093750
2323.842773	300766.031250
2322.317383	300535.500000
2320.791016	300731.125000
2319.265625	300135.531250
2317.738281	300569.500000
2316.211914	300291.468750
2314.684570	300046.406250
2313.156250	300867.718750
2311.628906	299145.937500
2310.099609	300466.218750
2308.571289	299398.750000
2307.041992	298343.312500
2305.511719	300706.281250
2303.982422	298871.750000
2302.451172	298512.531250
2300.920898	299219.218750
2299.389648	297073.343750
2297.857422	298078.218750
2296.326172	296426.812500
2294.792969	296396.125000
2293.260742	295389.500000
2291.727539	295787.937500
2290.193359	295614.968750
2288.659180	295023.187500
2287.125000	296646.531250
2285.589844	294942.687500
2284.054688	293810.312500
2282.519531	294669.312500
2280.983398	294674.843750
2279.447266	294461.437500
2277.910156	294504.531250
2276.373047	293189.062500
2274.834961	292540.250000
2273.296875	291857.500000
2271.758789	291937.000000
2270.219727	291489.593750
2268.680664	291640.843750
2267.141602	291840.906250
2265.601563	291771.875000
2264.060547	291082.062500
2262.519531	291759.343750
2260.978516	290545.406250
2259.437500	290484.843750
2257.895508	290888.187500
2256.352539	289867.406250
2254.809570	289235.906250
2253.266602	289444.031250
2251.723633	288492.593750
2250.178711	290341.000000
2248.634766	289061.468750
2247.089844	289270.906250
2245.544922	288879.218750
2243.999023	289445.812500
2242.453125	288083.312500
2240.907227	289401.281250
2239.360352	289383.031250
2237.812500	287289.875000
2236.265625	287976.031250
2234.716797	287053.343750
2233.168945	286925.406250
2231.620117	287538.125000
2230.070313	286585.375000
2228.521484	286674.625000
2226.970703	286324.968750
2225.420898	284767.750000
2223.870117	285789.562500
2222.318359	285945.156250
2220.766602	285584.593750
2219.214844	285166.000000
2217.662109	286008.687500
2216.109375	285507.687500
2214.556641	285171.781250
2213.002930	285579.156250
2211.449219	284379.218750
2209.894531	285333.937500
2208.339844	284468.781250
2206.784180	285053.343750
2205.228516	285106.750000
2203.672852	285164.937500
2202.116211	285816.500000
2200.559570	283209.437500
2199.001953	283625.812500
2197.444336	284004.843750
2195.885742	285110.218750
2194.327148	284417.656250
2192.768555	282843.062500
2191.208984	283769.125000
2189.649414	283439.437500
2188.089844	283948.125000
2186.529297	283755.218750
2184.967773	283568.843750
2183.407227	283435.593750
2181.844727	282060.000000
2180.283203	282479.875000
2178.720703	282446.500000
2177.157227	283310.843750
2175.593750	283143.968750
2174.030273	281935.468750
2172.465820	281321.281250
2170.901367	282196.125000
2169.336914	281238.937500
2167.771484	280828.968750
2166.205078	281456.343750
2164.638672	281737.187500
2163.072266	280672.031250
2161.504883	281276.437500
2159.937500	279942.906250
2158.370117	279871.562500
2156.801758	280286.750000
2155.233398	279312.875000
2153.664063	279108.875000
2152.094727	278769.031250
2150.524414	278808.281250
2148.954102	278922.593750
2147.383789	279099.156250
2145.812500	278499.156250
2144.241211	277703.000000
2142.668945	277771.093750
2141.096680	278485.593750
